Time,FZ,C3,CZ,C4,PZ,PO7,OZ,PO8,AccX,AccY,AccZ,Gyro1,Gyro2,Gyro3,Battery,Counter,Validation
23090.4998919,220989.921875,228420.0,684145.25,335952.90625,-709067.0,330315.78125,236733.6875,-708300.375,-0.131591796875,0.988037109375,0.09228515625,-0.5798339247703552,2.502441167831421,-0.1220703050494194,66.66667175292969,1397863.0,1.0
23090.508641,221066.359375,228513.421875,684247.0,336078.53125,-709059.125,330419.25,236816.46875,-708292.125,-0.132080078125,0.98681640625,0.094482421875,-0.5493163466453552,2.532958745956421,-0.0610351525247097,66.66667175292969,1397864.0,1.0
23090.5116015,220701.046875,228203.28125,683916.125,335767.84375,-709068.5625,330169.0625,236491.390625,-708301.0,-0.1328125,0.98388671875,0.095703125,-0.5187987685203552,2.624511480331421,0.0,66.66667175292969,1397865.0,1.0
23090.5116341,220472.34375,227949.453125,683623.9375,335463.75,-709070.25,329944.75,236235.953125,-708302.5625,-0.133544921875,0.98388671875,0.092529296875,-0.5493163466453552,2.624511480331421,-0.0915527269244194,66.66667175292969,1397866.0,1.0
23090.522397,220839.8125,228253.96875,683944.1875,335760.59375,-709057.4375,330198.3125,236553.890625,-708289.875,-0.135009765625,0.98388671875,0.092041015625,-0.3356933295726776,2.593993902206421,-0.0915527269244194,66.66667175292969,1397867.0,1.0
23090.525335,221011.203125,228442.625,684151.0,335979.90625,-709055.75,330374.8125,236750.578125,-708288.4375,-0.1376953125,0.98583984375,0.09521484375,-0.3662109076976776,2.655029058456421,-0.0915527269244194,66.66667175292969,1397868.0,1.0
23090.5253514,221067.078125,228514.859375,684238.8125,336091.3125,-709054.3125,330463.84375,236821.75,-708286.9375,-0.1357421875,0.98583984375,0.09375,-0.2746581733226776,2.746581792831421,0.03051757626235485,66.66667175292969,1397869.0,1.0
23090.527239,220704.890625,228209.4375,683908.25,335779.0,-709061.3125,330212.0,236494.078125,-708293.9375,-0.134521484375,0.986572265625,0.095703125,-0.2746581733226776,2.624511480331421,0.03051757626235485,66.66667175292969,1397870.0,1.0
23090.5385825,220474.84375,227956.328125,683608.9375,335474.125,-709059.125,329985.78125,236237.65625,-708291.75,-0.1357421875,0.98681640625,0.09765625,-0.1831054538488388,2.716064214706421,0.0915527269244194,66.66667175292969,1397871.0,1.0
23090.5417003,220831.671875,228244.40625,683931.5625,335772.21875,-709051.875,330241.75,236555.859375,-708284.6875,-0.1396484375,0.987060546875,0.09814453125,-0.0915527269244194,2.655029058456421,0.0915527269244194,66.66667175292969,1397872.0,1.0
23090.5417167,220996.53125,228419.1875,684131.75,335983.125,-709055.1875,330413.59375,236742.625,-708287.3125,-0.138916015625,0.985595703125,0.0986328125,-0.0610351525247097,2.563476324081421,0.2136230319738388,66.66667175292969,1397873.0,1.0
23090.5498684,221062.25,228502.609375,684222.4375,336094.78125,-709052.5625,330504.4375,236811.734375,-708284.5,-0.139404296875,0.985595703125,0.09814453125,0.03051757626235485,2.655029058456421,0.1220703050494194,66.66667175292969,1397874.0,1.0
23090.5527518,220693.796875,228191.734375,683886.4375,335778.28125,-709060.5,330248.65625,236480.21875,-708292.5625,-0.14013671875,0.982421875,0.096923828125,0.03051757626235485,2.532958745956421,0.2441406100988388,66.66667175292969,1397875.0,1.0
23090.552775,220462.78125,227935.765625,683596.125,335473.59375,-709066.125,330023.78125,236225.5,-708298.375,-0.1416015625,0.981201171875,0.10107421875,0.1525878757238388,2.502441167831421,0.2746581733226776,66.66667175292969,1397876.0,1.0
23090.5548687,220817.8125,228227.5,683924.3125,335767.75,-709049.875,330276.375,236539.5,-708282.375,-0.141845703125,0.984130859375,0.097900390625,0.2441406100988388,2.441406011581421,0.3967284858226776,66.66667175292969,1397877.0,1.0
23090.5786369,220993.40625,228420.4375,684134.0,335983.9375,-709047.0625,330453.5625,236732.703125,-708280.25,-0.141357421875,0.986328125,0.09716796875,0.3967284858226776,2.349853277206421,0.3051757514476776,66.66667175292969,1397878.0,1.0
23090.5828856,221054.734375,228499.125,684227.0,336096.75,-709054.4375,330548.25,236805.921875,-708287.125,-0.13916015625,0.98779296875,0.09619140625,0.4272460639476776,2.410888433456421,0.3051757514476776,66.66667175292969,1397879.0,1.0
23090.582901,220688.078125,228183.6875,683891.8125,335780.78125,-709065.9375,330295.78125,236476.8125,-708297.9375,-0.13818359375,0.98974609375,0.09716796875,0.4577636420726776,2.258300542831421,0.4882812201976776,66.66667175292969,1397880.0,1.0
23090.5829049,220464.125,227939.25,683608.75,335476.28125,-709057.8125,330072.96875,236222.1875,-708289.6875,-0.138427734375,0.989990234375,0.094482421875,0.4577636420726776,2.166747808456421,0.3662109076976776,66.66667175292969,1397881.0,1.0
23090.582909,220825.59375,228243.78125,683935.0,335779.1875,-709047.25,330333.75,236543.875,-708279.9375,-0.138916015625,0.990966796875,0.0947265625,0.4272460639476776,2.105712652206421,0.1831054538488388,66.66667175292969,1397882.0,1.0
23090.5848448,220997.4375,228431.171875,684146.0625,335999.84375,-709049.3125,330515.71875,236742.53125,-708281.75,-0.136474609375,0.989013671875,0.09521484375,0.4272460639476776,1.9531248807907104,0.2746581733226776,66.66667175292969,1397883.0,1.0
23090.5874057,221062.875,228512.890625,684238.0,336114.71875,-709043.9375,330611.1875,236818.359375,-708276.5625,-0.136474609375,0.991455078125,0.09375,0.3662109076976776,1.9531248807907104,0.3967284858226776,66.66667175292969,1397884.0,1.0
23090.5898279,220693.09375,228195.3125,683895.625,335792.40625,-709066.3125,330350.84375,236483.25,-708298.8125,-0.1357421875,0.99169921875,0.093505859375,0.3356933295726776,1.8310545682907104,0.4882812201976776,66.66667175292969,1397885.0,1.0
23090.5959173,220463.765625,227942.75,683618.125,335482.8125,-709072.125,330124.71875,236226.5625,-708304.1875,-0.13427734375,0.989990234375,0.093994140625,0.2746581733226776,1.8615721464157104,0.5187987685203552,66.66667175292969,1397886.0,1.0
23090.6054767,220828.453125,228244.671875,683963.5625,335785.90625,-709058.1875,330389.03125,236551.46875,-708290.875,-0.133544921875,0.987548828125,0.09375,0.2441406100988388,1.8615721464157104,0.6103515028953552,66.66667175292969,1397887.0,1.0
23090.6054941,221000.203125,228432.875,684171.375,335999.5,-709051.25,330565.15625,236742.625,-708284.1875,-0.132080078125,0.990966796875,0.094970703125,0.1831054538488388,1.8615721464157104,0.6103515028953552,66.66667175292969,1397888.0,1.0
23090.6117419,221065.46875,228520.140625,684267.75,336113.3125,-709049.25,330661.25,236815.484375,-708282.3125,-0.133056640625,0.991455078125,0.09765625,0.1220703050494194,1.9226073026657104,0.6408690810203552,66.66667175292969,1397889.0,1.0
23090.6117572,220705.34375,228221.25,683941.5,335807.625,-709061.8125,330417.09375,236496.125,-708294.1875,-0.133056640625,0.991455078125,0.096435546875,0.1220703050494194,1.9531248807907104,0.6103515028953552,66.66667175292969,1397890.0,1.0
23090.6204713,220477.703125,227971.078125,683630.1875,335504.0,-709066.5625,330193.3125,236240.875,-708298.5625,-0.1318359375,0.993408203125,0.09423828125,0.03051757626235485,2.014159917831421,0.5493163466453552,66.66667175292969,1397891.0,1.0
23090.6204878,220841.765625,228269.25,683944.375,335803.78125,-709056.75,330449.46875,236560.6875,-708288.75,-0.131103515625,0.992431640625,0.09521484375,-0.0915527269244194,2.105712652206421,0.6103515028953552,66.66667175292969,1397892.0,1.0
23090.6267295,221006.90625,228443.875,684142.5625,336015.03125,-709049.5625,330618.875,236747.984375,-708282.125,-0.13134765625,0.991455078125,0.097900390625,-0.1525878757238388,2.227782964706421,0.5493163466453552,66.66667175292969,1397893.0,1.0
23090.6267458,221073.78125,228530.953125,684242.0,336137.25,-709044.6875,330721.0,236825.859375,-708277.3125,-0.1298828125,0.9892578125,0.097900390625,-0.1831054538488388,2.319335699081421,0.5798339247703552,66.66667175292969,1397894.0,1.0
23090.6354956,220705.515625,228224.734375,683906.625,335821.9375,-709060.125,330466.625,236496.75,-708292.1875,-0.130126953125,0.988037109375,0.093505859375,-0.1525878757238388,2.349853277206421,0.4882812201976776,66.66667175292969,1397895.0,1.0
23090.6355147,220472.609375,227972.515625,683605.6875,335513.65625,-709061.1875,330239.71875,236237.46875,-708292.9375,-0.130615234375,0.98828125,0.09814453125,-0.1831054538488388,2.319335699081421,0.4272460639476776,66.66667175292969,1397896.0,1.0
23090.6392253,220834.4375,228272.75,683932.75,335818.78125,-709046.375,330500.34375,236557.828125,-708278.4375,-0.132080078125,0.98828125,0.09716796875,-0.2136230319738388,2.349853277206421,0.3356933295726776,66.66667175292969,1397897.0,1.0
23090.6392415,220998.765625,228450.578125,684141.6875,336030.6875,-709041.375,330673.6875,236747.8125,-708274.0,-0.1337890625,0.989501953125,0.0966796875,-0.2136230319738388,2.441406011581421,0.4577636420726776,66.66667175292969,1397898.0,1.0
23090.6474919,221071.375,228540.609375,684247.4375,336150.84375,-709037.75,330774.0,236827.5625,-708270.3125,-0.13427734375,0.988525390625,0.095458984375,-0.2746581733226776,2.410888433456421,0.4577636420726776,66.66667175292969,1397899.0,1.0
23090.6542254,220703.734375,228226.15625,683913.5,335837.46875,-709056.0,330520.0,236498.09375,-708288.4375,-0.13623046875,0.989013671875,0.09375,-0.1831054538488388,2.319335699081421,0.2746581733226776,66.66667175292969,1397900.0,1.0
23090.6542415,220474.21875,227969.03125,683611.9375,335531.34375,-709062.4375,330295.21875,236241.234375,-708294.6875,-0.13671875,0.98828125,0.094970703125,-0.1831054538488388,2.380370855331421,0.1525878757238388,66.66667175292969,1397901.0,1.0
23090.6628429,220840.078125,228273.640625,683952.125,335836.0625,-709051.4375,330557.5625,236565.6875,-708283.8125,-0.138671875,0.989501953125,0.093994140625,-0.1831054538488388,2.288818120956421,0.03051757626235485,66.66667175292969,1397902.0,1.0
23090.6628601,221011.109375,228458.171875,684169.0625,336055.71875,-709047.375,330734.125,236760.59375,-708280.25,-0.142578125,0.991943359375,0.095947265625,-0.1525878757238388,2.227782964706421,-0.1220703050494194,66.66667175292969,1397903.0,1.0
23090.6665847,221081.921875,228548.46875,684271.75,336179.0,-709040.75,330837.46875,236842.140625,-708273.875,-0.14306640625,0.9912109375,0.09619140625,-0.0610351525247097,2.105712652206421,-0.2136230319738388,66.66667175292969,1397904.0,1.0
23090.6666006,220716.421875,228241.453125,683944.5625,335870.1875,-709048.0,330589.8125,236519.375,-708280.5,-0.1416015625,0.9921875,0.097900390625,-0.2441406100988388,1.8920897245407104,-0.2746581733226776,66.66667175292969,1397905.0,1.0
23090.6736487,220486.015625,227994.234375,683653.8125,335568.90625,-709048.4375,330370.34375,236265.015625,-708280.875,-0.138916015625,0.993896484375,0.094482421875,-0.2746581733226776,1.9226073026657104,-0.3662109076976776,66.66667175292969,1397906.0,1.0
23090.6935875,220840.34375,228285.890625,683988.875,335864.65625,-709043.4375,330628.09375,236580.625,-708276.125,-0.138671875,0.9951171875,0.09619140625,-0.2441406100988388,1.7700194120407104,-0.3356933295726776,66.66667175292969,1397907.0,1.0
23090.6936029,221002.703125,228461.578125,684189.875,336069.75,-709044.125,330796.34375,236762.65625,-708277.125,-0.138427734375,0.9951171875,0.096435546875,-0.3662109076976776,1.8005369901657104,-0.2746581733226776,66.66667175292969,1397908.0,1.0
23090.6936072,221074.953125,228553.84375,684291.4375,336189.5625,-709039.9375,330898.375,236842.046875,-708273.0,-0.136474609375,0.99560546875,0.09375,-0.4272460639476776,1.8005369901657104,-0.2441406100988388,66.66667175292969,1397909.0,1.0
23090.6958792,220709.984375,228246.453125,683968.625,335880.84375,-709063.625,330652.3125,236518.84375,-708296.3125,-0.135009765625,0.99609375,0.093017578125,-0.5493163466453552,1.6784666776657104,-0.1831054538488388,66.66667175292969,1397910.0,1.0
23090.6984574,220481.734375,227995.9375,683685.0,335571.84375,-709069.6875,330427.46875,236261.34375,-708301.9375,-0.135498046875,0.996337890625,0.098876953125,-0.6103515028953552,1.7089842557907104,-0.0610351525247097,66.66667175292969,1397911.0,1.0
23090.7011569,220852.140625,228307.96875,684016.25,335883.15625,-709052.875,330698.46875,236592.59375,-708285.3125,-0.13427734375,0.9951171875,0.099609375,-0.8239745497703552,1.8615721464157104,0.0915527269244194,66.66667175292969,1397912.0,1.0
23090.7041951,221024.078125,228497.6875,684224.5,336104.8125,-709057.25,330883.25,236790.640625,-708289.875,-0.134033203125,0.994384765625,0.09521484375,-0.9155272841453552,1.9226073026657104,0.1831054538488388,66.66667175292969,1397913.0,1.0
23090.7042172,221091.046875,228582.359375,684323.125,336225.5,-709062.125,330986.15625,236868.515625,-708294.6875,-0.133544921875,0.993896484375,0.0947265625,-0.8850097060203552,1.8920897245407104,0.1220703050494194,66.66667175292969,1397914.0,1.0
23090.712221,220723.390625,228265.59375,683990.75,335912.125,-709073.875,330733.5,236541.90625,-708306.25,-0.13232421875,0.992919921875,0.096435546875,-0.9460448622703552,1.9836424589157104,0.2441406100988388,66.66667175292969,1397915.0,1.0
23090.7154482,220495.59375,228017.75,683695.5625,335605.65625,-709076.0625,330512.21875,236286.921875,-708308.125,-0.133056640625,0.994140625,0.097900390625,-0.9460448622703552,1.9531248807907104,0.3662109076976776,66.66667175292969,1397916.0,1.0
23090.7154641,220857.421875,228319.421875,684021.8125,335908.1875,-709066.3125,330773.5625,236608.875,-708298.8125,-0.132568359375,0.994140625,0.09814453125,-1.0681151151657104,2.105712652206421,0.3662109076976776,66.66667175292969,1397917.0,1.0
23090.7172336,221025.140625,228504.671875,684226.8125,336123.21875,-709069.4375,330950.0625,236801.90625,-708302.125,-0.132080078125,0.992919921875,0.098876953125,-1.1291502714157104,2.166747808456421,0.3662109076976776,66.66667175292969,1397918.0,1.0
23090.7311532,221086.75,228588.796875,684321.875,336239.46875,-709063.0,331045.34375,236875.578125,-708296.0,-0.1318359375,0.9921875,0.09326171875,-1.1596678495407104,2.319335699081421,0.3662109076976776,66.66667175292969,1397919.0,1.0
23090.7335997,220718.03125,228273.375,683989.4375,335928.3125,-709077.625,330794.3125,236550.046875,-708310.4375,-0.130615234375,0.9892578125,0.09521484375,-1.1291502714157104,2.502441167831421,0.5187987685203552,66.66667175292969,1397920.0,1.0
23090.7367684,220492.90625,228028.84375,683690.125,335633.375,-709074.1875,330577.9375,236303.8125,-708306.8125,-0.12841796875,0.989990234375,0.09521484375,-1.0986326932907104,2.716064214706421,0.4577636420726776,66.66667175292969,1397921.0,1.0
23090.7368009,220855.1875,228334.796875,684005.0,335940.375,-709063.0,330839.28125,236628.1875,-708296.0625,-0.126953125,0.988037109375,0.095947265625,-1.0986326932907104,2.868652105331421,0.3967284858226776,66.66667175292969,1397922.0,1.0
23090.7384823,221022.640625,228515.484375,684211.0625,336160.5,-709062.75,331016.75,236823.890625,-708295.4375,-0.126708984375,0.987548828125,0.097412109375,-1.1291502714157104,2.990722417831421,0.3662109076976776,66.66667175292969,1397923.0,1.0
23090.7472499,221088.890625,228597.03125,684312.25,336284.96875,-709061.5625,331120.09375,236907.765625,-708294.8125,-0.125,0.98779296875,0.098876953125,-1.0986326932907104,3.326415777206421,0.3356933295726776,66.66667175292969,1397924.0,1.0
23090.7517608,220723.75,228285.53125,683988.0625,335978.75,-709067.8125,330873.25,236587.234375,-708301.125,-0.124267578125,0.986572265625,0.09814453125,-1.0986326932907104,3.509521245956421,0.2441406100988388,66.66667175292969,1397925.0,1.0
23090.7517936,220482.890625,228019.0,683682.0625,335662.59375,-709073.25,330638.03125,236321.15625,-708306.0,-0.1240234375,0.986572265625,0.099853515625,-0.9765624403953552,3.723144292831421,0.1525878757238388,66.66667175292969,1397926.0,1.0
23090.757397,220845.796875,228320.3125,684002.8125,335961.40625,-709060.9375,330892.90625,236638.28125,-708293.8125,-0.12353515625,0.9873046875,0.101318359375,-0.7934569716453552,4.089354991912842,0.0915527269244194,66.66667175292969,1397927.0,1.0
23090.7668397,221010.9375,228496.078125,684210.0,336176.25,-709062.1875,331063.875,236827.5625,-708295.25,-0.120849609375,0.9853515625,0.100341796875,-0.7324218153953552,4.486083507537842,0.0610351525247097,66.66667175292969,1397928.0,1.0
23090.7668761,221080.671875,228579.046875,684314.0625,336302.5,-709058.875,331164.8125,236909.8125,-708291.6875,-0.117431640625,0.987548828125,0.102294921875,-0.7629393935203552,4.882812023162842,-0.0610351525247097,66.66667175292969,1397929.0,1.0
23090.7685373,220716.25,228266.390625,683981.125,335991.25,-709068.875,330910.09375,236582.59375,-708301.4375,-0.115234375,0.9892578125,0.103759765625,-0.6408690810203552,5.340575695037842,-0.1525878757238388,66.66667175292969,1397930.0,1.0
23090.7788053,220479.578125,228003.09375,683689.9375,335676.375,-709069.0625,330676.90625,236319.28125,-708301.5,-0.117919921875,0.9892578125,0.1015625,-0.5187987685203552,5.676269054412842,-0.2136230319738388,66.66667175292969,1397931.0,1.0
23090.781778,220842.484375,228298.40625,684014.125,335973.5625,-709058.25,330928.84375,236633.8125,-708291.125,-0.117431640625,0.986328125,0.102294921875,-0.4577636420726776,6.164550304412842,-0.1831054538488388,66.66667175292969,1397932.0,1.0
23090.7818117,221006.734375,228468.453125,684214.4375,336187.96875,-709058.0625,331098.03125,236820.859375,-708291.5,-0.119140625,0.988037109375,0.100830078125,-0.4272460639476776,6.469726085662842,-0.2136230319738388,66.66667175292969,1397933.0,1.0
23090.7860808,221077.890625,228549.375,684306.1875,336302.65625,-709049.0625,331187.34375,236893.09375,-708282.3125,-0.12255859375,0.98876953125,0.10302734375,-0.3662109076976776,6.805419445037842,-0.2746581733226776,66.66667175292969,1397934.0,1.0
23090.7898837,220719.546875,228246.28125,683977.25,335995.09375,-709069.875,330935.28125,236569.4375,-708303.125,-0.12255859375,0.989990234375,0.10400390625,-0.2441406100988388,7.049560070037842,-0.2441406100988388,66.66667175292969,1397935.0,1.0
23090.7960517,220477.171875,227977.875,683674.875,335679.84375,-709075.9375,330699.25,236302.5625,-708309.1875,-0.126220703125,0.990478515625,0.10400390625,-0.1831054538488388,7.293700695037842,-0.1220703050494194,66.66667175292969,1397936.0,1.0
23090.8003979,220834.265625,228263.359375,684003.0,335976.5,-709056.8125,330949.40625,236617.359375,-708290.6875,-0.129150390625,0.989501953125,0.103759765625,-0.1831054538488388,7.476806163787842,-0.1831054538488388,66.66667175292969,1397937.0,1.0
23090.8004306,221008.25,228444.234375,684205.5,336193.3125,-709059.5,331117.96875,236807.53125,-708293.3125,-0.131103515625,0.990966796875,0.1025390625,-0.1831054538488388,7.629394054412842,-0.2136230319738388,66.66667175292969,1397938.0,1.0
23090.8087401,221076.734375,228524.15625,684298.125,336309.5625,-709051.1875,331205.40625,236882.28125,-708285.25,-0.133544921875,0.990478515625,0.099609375,-0.2136230319738388,7.812499523162842,-0.2441406100988388,66.66667175292969,1397939.0,1.0
23090.8130298,220717.40625,228214.8125,683966.875,336000.65625,-709060.75,330950.84375,236558.265625,-708294.0,-0.136474609375,0.989501953125,0.100830078125,-0.2746581733226776,7.781981945037842,-0.2136230319738388,66.66667175292969,1397940.0,1.0
23090.8130616,220481.46875,227955.890625,683665.9375,335699.15625,-709067.0,330724.375,236303.8125,-708299.1875,-0.13623046875,0.99169921875,0.103271484375,-0.2441406100988388,7.751464366912842,-0.2746581733226776,66.66667175292969,1397941.0,1.0
23090.8210063,220835.96875,228243.78125,683984.0625,335992.4375,-709052.0625,330970.6875,236616.734375,-708285.25,-0.138427734375,0.991455078125,0.10205078125,-0.2441406100988388,7.690429210662842,-0.2746581733226776,66.66667175292969,1397942.0,1.0
23090.827981,221010.578125,228427.6875,684188.8125,336205.21875,-709041.8125,331137.4375,236804.3125,-708275.3125,-0.14111328125,0.9921875,0.103759765625,-0.3356933295726776,7.659911632537842,-0.3662109076976776,66.66667175292969,1397943.0,1.0
23090.8280127,221080.484375,228509.40625,684285.5625,336323.40625,-709048.25,331230.34375,236880.140625,-708281.9375,-0.14306640625,0.991455078125,0.104248046875,-0.3967284858226776,7.385253429412842,-0.3356933295726776,66.66667175292969,1397944.0,1.0
23090.8297544,220715.53125,228197.734375,683950.625,336006.71875,-709067.9375,330968.46875,236547.8125,-708301.5,-0.144775390625,0.9921875,0.105224609375,-0.3967284858226776,7.202147960662842,-0.2136230319738388,66.66667175292969,1397945.0,1.0
23090.8391248,220479.5,227943.640625,683644.875,335692.8125,-709075.75,330731.71875,236281.90625,-708308.9375,-0.14697265625,0.989990234375,0.1064453125,-0.4272460639476776,6.866454601287842,-0.2136230319738388,66.66667175292969,1397946.0,1.0
23090.8391563,220837.75,228235.8125,683970.1875,335989.75,-709056.4375,330982.78125,236598.5,-708290.0625,-0.15087890625,0.98779296875,0.1083984375,-0.2441406100988388,6.622313976287842,-0.0915527269244194,66.66667175292969,1397947.0,1.0
23090.8409551,221009.40625,228410.609375,684175.6875,336203.4375,-709055.0625,331150.78125,236787.15625,-708288.4375,-0.150390625,0.987060546875,0.10791015625,-0.4272460639476776,6.225585460662842,0.0,66.66667175292969,1397948.0,1.0
23090.8524313,221080.75,228496.625,684269.0,336322.15625,-709058.0,331240.34375,236862.078125,-708291.4375,-0.153564453125,0.986572265625,0.10546875,-0.4272460639476776,5.920409679412842,-0.0915527269244194,66.66667175292969,1397949.0,1.0
23090.8555191,220720.453125,228193.984375,683937.75,336011.71875,-709072.8125,330983.84375,236535.46875,-708306.25,-0.154541015625,0.986572265625,0.10791015625,-0.3356933295726776,5.401610851287842,0.0,66.66667175292969,1397950.0,1.0
23090.855552,220479.765625,227932.46875,683625.375,335704.53125,-709081.5,330755.59375,236279.59375,-708314.375,-0.155517578125,0.987548828125,0.10986328125,-0.3051757514476776,5.004882335662842,0.0,66.66667175292969,1397951.0,1.0
23090.8574121,220840.4375,228234.828125,683944.0,336009.15625,-709066.125,331015.84375,236605.921875,-708299.375,-0.155517578125,0.988037109375,0.109375,-0.2746581733226776,4.516601085662842,0.03051757626235485,66.66667175292969,1397952.0,1.0
23090.8637173,221008.515625,228419.734375,684150.875,336221.3125,-709058.5,331184.28125,236795.640625,-708292.75,-0.15625,0.98828125,0.109619140625,-0.1525878757238388,4.119872570037842,0.0,66.66667175292969,1397953.0,1.0
23090.8678601,221075.84375,228506.71875,684251.375,336341.03125,-709056.0,331280.40625,236874.140625,-708289.875,-0.15673828125,0.988037109375,0.109619140625,-0.1220703050494194,3.784179449081421,-0.0610351525247097,66.66667175292969,1397954.0,1.0
23090.8678914,220708.46875,228191.390625,683922.375,336031.84375,-709066.1875,331025.875,236546.5625,-708299.4375,-0.157958984375,0.98681640625,0.108154296875,-0.0610351525247097,3.234863042831421,0.0915527269244194,66.66667175292969,1397955.0,1.0
23090.8798444,220472.703125,227934.515625,683617.75,335721.34375,-709072.125,330793.125,236280.75,-708305.0,-0.15771484375,0.986083984375,0.1083984375,0.0915527269244194,2.777099370956421,0.1831054538488388,66.66667175292969,1397956.0,1.0
23090.8890887,220836.5,228241.265625,683930.6875,336022.03125,-709055.1875,331052.78125,236600.921875,-708288.625,-0.156005859375,0.986083984375,0.107421875,0.2136230319738388,2.349853277206421,0.2746581733226776,66.66667175292969,1397957.0,1.0
23090.889105,221002.703125,228421.515625,684134.8125,336234.90625,-709050.5,331226.3125,236791.984375,-708283.8125,-0.152587890625,0.98388671875,0.10595703125,0.3356933295726776,2.044677495956421,0.3356933295726776,66.66667175292969,1397958.0,1.0
23090.8911875,221062.78125,228497.6875,684227.8125,336339.6875,-709059.9375,331309.5625,236855.015625,-708293.8125,-0.15087890625,0.985107421875,0.107421875,0.4577636420726776,1.5869139432907104,0.3662109076976776,66.66667175292969,1397959.0,1.0
23090.9160257,220717.5,228213.5625,683914.0625,336043.46875,-709069.0,331072.625,236542.625,-708302.5,-0.146484375,0.981689453125,0.107177734375,0.5798339247703552,1.2207030057907104,0.4272460639476776,66.66667175292969,1397960.0,1.0
23090.9186215,220479.140625,227959.375,683610.5,335736.0,-709065.25,330848.125,236284.421875,-708298.3125,-0.145263671875,0.98193359375,0.107666015625,0.6408690810203552,1.0986326932907104,0.5798339247703552,66.66667175292969,1397961.0,1.0
23090.9211499,220832.65625,228248.78125,683917.4375,336028.4375,-709047.5,331099.4375,236597.25,-708280.875,-0.140625,0.98095703125,0.10791015625,0.7934569716453552,0.8239745497703552,0.5798339247703552,66.66667175292969,1397962.0,1.0
23090.923706,221007.625,228438.953125,684129.4375,336245.625,-709041.375,331278.71875,236793.234375,-708274.6875,-0.137451171875,0.98193359375,0.1064453125,0.9460448622703552,0.7019042372703552,0.6713866591453552,66.66667175292969,1397963.0,1.0
23090.9261663,221067.4375,228519.59375,684219.9375,336353.90625,-709042.5,331367.84375,236860.90625,-708276.0625,-0.136474609375,0.98193359375,0.1044921875,0.9765624403953552,0.5798339247703552,0.7629393935203552,66.66667175292969,1397964.0,1.0
23090.9286662,220710.4375,228223.75,683889.5,336041.78125,-709067.5625,331117.3125,236534.125,-708300.375,-0.130615234375,0.982177734375,0.10546875,1.1596678495407104,0.5187987685203552,0.9765624403953552,66.66667175292969,1397965.0,1.0
23090.9311714,220477.4375,227971.625,683596.5625,335729.5625,-709076.0625,330889.78125,236272.078125,-708308.5625,-0.12890625,0.98388671875,0.105224609375,1.1901854276657104,0.5798339247703552,1.0375975370407104,66.66667175292969,1397966.0,1.0
23090.9336576,220830.6875,228264.421875,683932.9375,336019.4375,-709068.25,331141.03125,236581.0625,-708301.4375,-0.126708984375,0.9853515625,0.105224609375,1.2512205839157104,0.5798339247703552,1.0986326932907104,66.66667175292969,1397967.0,1.0
23090.9361057,220994.921875,228441.359375,684134.5625,336226.40625,-709066.8125,331308.9375,236764.171875,-708300.25,-0.125732421875,0.986328125,0.1064453125,1.2817381620407104,0.7629393935203552,1.1291502714157104,66.66667175292969,1397968.0,1.0
23090.939195,221067.078125,228529.875,684236.375,336344.875,-709064.625,331408.4375,236840.25,-708298.125,-0.126708984375,0.98876953125,0.10205078125,1.4038084745407104,0.8850097060203552,1.2207030057907104,66.66667175292969,1397969.0,1.0
23090.9392116,220704.796875,228220.359375,683903.125,336033.90625,-709071.9375,331158.71875,236515.078125,-708305.1875,-0.128662109375,0.987060546875,0.101318359375,1.4343260526657104,1.0070799589157104,1.2512205839157104,66.66667175292969,1397970.0,1.0
23090.9416297,220458.65625,227947.03125,683610.625,335707.65625,-709075.4375,330921.4375,236242.75,-708308.3125,-0.12841796875,0.98828125,0.10205078125,1.4038084745407104,0.9765624403953552,1.0986326932907104,66.66667175292969,1397971.0,1.0
23090.9416461,220816.015625,228238.59375,683942.9375,335995.09375,-709063.4375,331171.34375,236552.71875,-708296.6875,-0.129150390625,0.9892578125,0.1025390625,1.5563963651657104,1.0375975370407104,0.9460448622703552,66.66667175292969,1397972.0,1.0
23090.9436072,220984.375,228416.328125,684144.625,336202.71875,-709066.375,331337.625,236736.015625,-708299.75,-0.1298828125,0.989013671875,0.102783203125,1.4953612089157104,0.9460448622703552,0.7629393935203552,66.66667175292969,1397973.0,1.0
23090.9474448,221052.765625,228497.953125,684241.125,336315.90625,-709067.0,331429.0,236806.375,-708300.0,-0.130126953125,0.9873046875,0.099853515625,1.5258787870407104,1.0986326932907104,0.4882812201976776,66.66667175292969,1397974.0,1.0
23090.9565925,220695.140625,228192.28125,683910.0625,336002.625,-709076.5625,331176.875,236480.21875,-708309.1875,-0.12890625,0.986328125,0.10009765625,1.5258787870407104,1.2207030057907104,0.2136230319738388,66.66667175292969,1397975.0,1.0
23090.9566094,220455.71875,227932.46875,683615.0625,335685.03125,-709088.5,330942.71875,236215.390625,-708320.75,-0.13037109375,0.986572265625,0.098388671875,1.4648436307907104,1.2512205839157104,0.0915527269244194,66.66667175292969,1397976.0,1.0
23090.9705408,220807.796875,228224.734375,683941.0,335973.90625,-709075.6875,331190.1875,236525.71875,-708308.3125,-0.128662109375,0.986328125,0.096435546875,1.4343260526657104,1.2512205839157104,-0.03051757626235485,66.66667175292969,1397977.0,1.0
23090.9705572,220975.609375,228410.609375,684142.3125,336185.90625,-709069.4375,331359.8125,236714.90625,-708302.0625,-0.127197265625,0.98828125,0.10009765625,1.5563963651657104,1.3427733182907104,-0.1525878757238388,66.66667175292969,1397978.0,1.0
23090.9735445,221044.09375,228495.546875,684235.5625,336298.46875,-709062.75,331450.625,236787.953125,-708295.25,-0.127197265625,0.988037109375,0.10205078125,1.5869139432907104,1.5258787870407104,-0.1831054538488388,66.66667175292969,1397979.0,1.0
23090.9735608,220692.375,228194.6875,683909.25,335990.8125,-709071.1875,331200.9375,236464.296875,-708303.8125,-0.12939453125,0.989501953125,0.1025390625,1.5563963651657104,1.4343260526657104,-0.1525878757238388,66.66667175292969,1397980.0,1.0
23090.9735656,220451.328125,227929.953125,683605.625,335670.125,-709081.25,330964.8125,236193.84375,-708313.5625,-0.12939453125,0.989013671875,0.101806640625,1.6479490995407104,1.6479490995407104,-0.1525878757238388,66.66667175292969,1397981.0,1.0
23090.9772956,220810.84375,228230.0,683927.9375,335965.34375,-709069.875,331218.09375,236508.921875,-708302.75,-0.129638671875,0.988037109375,0.0986328125,1.4648436307907104,1.8310545682907104,-0.1525878757238388,66.66667175292969,1397982.0,1.0
23090.9847629,220974.90625,228400.953125,684129.0,336170.34375,-709065.4375,331380.375,236692.734375,-708298.5,-0.130126953125,0.98876953125,0.099853515625,1.4038084745407104,1.9226073026657104,-0.1831054538488388,66.66667175292969,1397983.0,1.0
23090.9942223,221041.328125,228474.453125,684222.875,336279.59375,-709070.6875,331470.40625,236765.15625,-708303.9375,-0.131103515625,0.990478515625,0.098388671875,1.3427733182907104,1.9531248807907104,-0.1220703050494194,66.66667175292969,1397984.0,1.0
23090.9942409,220683.34375,228167.953125,683894.9375,335967.375,-709077.125,331218.09375,236440.703125,-708309.9375,-0.13232421875,0.990234375,0.098388671875,1.3427733182907104,1.8615721464157104,-0.0915527269244194,66.66667175292969,1397985.0,1.0
23090.9964724,220443.828125,227908.59375,683595.75,335648.65625,-709074.625,330980.71875,236172.75,-708307.5,-0.134521484375,0.9912109375,0.09814453125,1.3732908964157104,1.9836424589157104,-0.0610351525247097,66.66667175292969,1397986.0,1.0
23090.9964896,220802.078125,228208.015625,683926.25,335944.6875,-709060.6875,331234.53125,236489.78125,-708294.0625,-0.13525390625,0.992431640625,0.10205078125,1.1901854276657104,2.075195074081421,-0.0915527269244194,66.66667175292969,1397987.0,1.0
23091.0074103,220972.484375,228391.828125,684130.0,336157.8125,-709055.125,331404.875,236680.3125,-708288.5625,-0.136962890625,0.993408203125,0.098388671875,1.0986326932907104,2.075195074081421,-0.03051757626235485,66.66667175292969,1397988.0,1.0
23091.0210127,221038.46875,228474.09375,684217.4375,336268.0625,-709061.9375,331491.21875,236749.78125,-708295.5,-0.135498046875,0.99560546875,0.10009765625,1.0070799589157104,1.9836424589157104,-0.03051757626235485,66.66667175292969,1397989.0,1.0
23091.0210291,220678.0625,228163.3125,683883.6875,335957.1875,-709073.5625,331235.625,236426.578125,-708306.5,-0.1357421875,0.992919921875,0.099609375,0.8850097060203552,1.9836424589157104,0.1220703050494194,66.66667175292969,1397990.0,1.0
23091.0210336,220440.15625,227907.875,683566.5625,335639.4375,-709068.0,331000.5625,236161.03125,-708300.6875,-0.136474609375,0.990478515625,0.09912109375,0.8239745497703552,1.9226073026657104,0.2136230319738388,66.66667175292969,1397991.0,1.0
23091.0291746,220801.0,228209.171875,683907.4375,335928.0625,-709048.9375,331250.53125,236473.234375,-708281.8125,-0.13525390625,0.99072265625,0.097412109375,0.7934569716453552,1.8310545682907104,0.1831054538488388,66.66667175292969,1397992.0,1.0
23091.029191,220974.1875,228394.78125,684120.5625,336145.03125,-709050.0,331424.71875,236666.984375,-708283.1875,-0.133056640625,0.98974609375,0.0986328125,0.7629393935203552,1.8615721464157104,0.2746581733226776,66.66667175292969,1397993.0,1.0
23091.0309291,221041.328125,228478.46875,684213.375,336257.15625,-709065.875,331514.5625,236740.84375,-708298.8125,-0.136474609375,0.99072265625,0.096923828125,0.7629393935203552,1.8615721464157104,0.3051757514476776,66.66667175292969,1397994.0,1.0
23091.0361922,220686.46875,228176.90625,683886.5,335950.40625,-709076.875,331266.8125,236424.515625,-708309.75,-0.13671875,0.991455078125,0.09814453125,0.7934569716453552,1.8615721464157104,0.4272460639476776,66.66667175292969,1397995.0,1.0
23091.0386023,220437.109375,227902.78125,683578.4375,335621.03125,-709078.375,331021.9375,236151.828125,-708311.0625,-0.1357421875,0.99169921875,0.099853515625,0.6713866591453552,1.7395018339157104,0.3967284858226776,66.66667175292969,1397996.0,1.0
23091.0409958,220795.109375,228195.40625,683898.6875,335908.375,-709069.6875,331268.25,236464.03125,-708303.0625,-0.134765625,0.990966796875,0.0986328125,0.6713866591453552,1.6784666776657104,0.4577636420726776,66.66667175292969,1397997.0,1.0
23091.0435426,220964.53125,228374.046875,684097.6875,336118.21875,-709066.375,331436.78125,236655.8125,-708299.8125,-0.134033203125,0.99169921875,0.09814453125,0.6103515028953552,1.6174315214157104,0.3051757514476776,66.66667175292969,1397998.0,1.0
23091.0479174,221037.75,228461.921875,684193.5625,336236.40625,-709059.25,331531.71875,236735.46875,-708292.5,-0.13525390625,0.98974609375,0.099853515625,0.6713866591453552,1.4648436307907104,0.3356933295726776,66.66667175292969,1397999.0,1.0
23091.047934,220686.5625,228168.9375,683866.5,335933.875,-709067.8125,331286.65625,236418.703125,-708300.625,-0.1357421875,0.98876953125,0.097412109375,0.5493163466453552,1.4038084745407104,0.2746581733226776,66.66667175292969,1398000.0,1.0
23091.0561698,220446.328125,227910.46875,683576.5625,335617.09375,-709078.375,331055.625,236155.3125,-708310.5625,-0.13525390625,0.98876953125,0.101318359375,0.6103515028953552,1.3427733182907104,0.2441406100988388,66.66667175292969,1398001.0,1.0
23091.0705137,220802.609375,228208.90625,683915.9375,335909.625,-709069.25,331309.375,236474.3125,-708302.4375,-0.13623046875,0.989013671875,0.102294921875,0.5798339247703552,1.4038084745407104,0.1831054538488388,66.66667175292969,1398002.0,1.0
23091.0705296,220980.4375,228401.84375,684132.75,336131.625,-709062.1875,331489.96875,236677.171875,-708295.6875,-0.134521484375,0.990478515625,0.098876953125,0.5798339247703552,1.2207030057907104,0.1525878757238388,66.66667175292969,1398003.0,1.0
23091.0727852,221052.765625,228489.203125,684228.4375,336250.625,-709064.25,331587.0625,236757.828125,-708297.875,-0.135009765625,0.98876953125,0.099365234375,0.5187987685203552,1.1901854276657104,0.03051757626235485,66.66667175292969,1398004.0,1.0
23091.0728029,220695.765625,228190.046875,683900.1875,335942.96875,-709075.6875,331338.4375,236436.40625,-708308.5625,-0.134521484375,0.990478515625,0.098876953125,0.4882812201976776,1.1291502714157104,0.0,66.66667175292969,1398005.0,1.0
23091.0879881,220450.796875,227930.40625,683597.5625,335628.09375,-709077.8125,331106.15625,236172.828125,-708310.625,-0.133544921875,0.98779296875,0.10009765625,0.4272460639476776,1.0986326932907104,-0.03051757626235485,66.66667175292969,1398006.0,1.0
23091.0880045,220811.640625,228230.8125,683921.6875,335926.25,-709065.0625,331360.34375,236492.28125,-708297.9375,-0.134521484375,0.98681640625,0.099365234375,0.4272460639476776,1.0375975370407104,-0.1220703050494194,66.66667175292969,1398007.0,1.0
23091.0983866,220977.21875,228408.015625,684122.125,336136.71875,-709057.875,331526.71875,236681.65625,-708291.25,-0.134765625,0.98828125,0.097412109375,0.4882812201976776,1.0070799589157104,-0.2136230319738388,66.66667175292969,1398008.0,1.0
23091.0984022,221037.84375,228482.21875,684212.25,336246.78125,-709056.4375,331614.34375,236754.875,-708289.8125,-0.1318359375,0.98876953125,0.10107421875,0.4272460639476776,0.9460448622703552,-0.2136230319738388,66.66667175292969,1398009.0,1.0
23091.0984066,220690.3125,228189.953125,683895.125,335948.4375,-709077.5625,331372.84375,236443.109375,-708310.375,-0.13427734375,0.990234375,0.100341796875,0.4577636420726776,0.8850097060203552,-0.1525878757238388,66.66667175292969,1398010.0,1.0
23091.1011175,220449.90625,227933.359375,683587.875,335633.1875,-709077.625,331141.90625,236176.671875,-708310.0,-0.135009765625,0.99072265625,0.098388671875,0.4272460639476776,0.9155272841453552,-0.2441406100988388,66.66667175292969,1398011.0,1.0
23091.1034551,220806.453125,228225.0,683916.5625,335921.6875,-709062.5625,331389.46875,236488.0,-708295.4375,-0.135498046875,0.98974609375,0.0986328125,0.5187987685203552,0.8850097060203552,-0.4272460639476776,66.66667175292969,1398012.0,1.0
23091.106111,220977.765625,228410.25,684128.625,336140.65625,-709062.1875,331566.0625,236685.21875,-708295.25,-0.1357421875,0.990478515625,0.1005859375,0.4272460639476776,0.8544921278953552,-0.3662109076976776,66.66667175292969,1398013.0,1.0
23091.1086023,221040.34375,228487.046875,684223.5,336256.09375,-709056.3125,331659.21875,236761.84375,-708289.4375,-0.13671875,0.988525390625,0.10107421875,0.4272460639476776,0.8239745497703552,-0.5493163466453552,66.66667175292969,1398014.0,1.0
23091.1110854,220691.5625,228194.25,683908.0,335955.9375,-709068.5625,331416.84375,236449.640625,-708301.125,-0.134521484375,0.99072265625,0.098876953125,0.3967284858226776,0.7934569716453552,-0.5493163466453552,66.66667175292969,1398015.0,1.0
23091.1148595,220447.125,227932.640625,683610.625,335637.21875,-709073.5625,331181.6875,236182.046875,-708306.25,-0.135009765625,0.9921875,0.10009765625,0.4577636420726776,0.7324218153953552,-0.5493163466453552,66.66667175292969,1398016.0,1.0
23091.1191886,220807.625,228232.6875,683926.125,335932.25,-709061.625,331433.28125,236495.0625,-708294.6875,-0.135009765625,0.992431640625,0.099853515625,0.3967284858226776,0.8239745497703552,-0.6408690810203552,66.66667175292969,1398017.0,1.0
23091.1192051,220974.71875,228414.640625,684125.0,336145.3125,-709059.6875,331604.875,236685.671875,-708293.1875,-0.132568359375,0.992431640625,0.10205078125,0.3662109076976776,0.9155272841453552,-0.7324218153953552,66.66667175292969,1398018.0,1.0
23091.122366,221038.734375,228496.078125,684217.75,336259.21875,-709057.0625,331698.03125,236760.5,-708290.5,-0.13330078125,0.992431640625,0.099853515625,0.3662109076976776,1.0375975370407104,-0.7629393935203552,66.66667175292969,1398019.0,1.0
23091.1391873,220685.21875,228199.15625,683892.25,335955.84375,-709068.375,331452.4375,236441.59375,-708301.125,-0.132568359375,0.9912109375,0.098876953125,0.4577636420726776,1.0986326932907104,-0.8239745497703552,66.66667175292969,1398020.0,1.0
23091.1392042,220438.375,227930.5,683578.3125,335632.75,-709075.75,331214.96875,236170.515625,-708308.125,-0.132080078125,0.98974609375,0.102294921875,0.5187987685203552,1.1596678495407104,-0.7934569716453552,66.66667175292969,1398021.0,1.0
23091.1435174,220794.5625,228220.171875,683902.875,335921.53125,-709063.875,331465.125,236483.171875,-708296.5,-0.13330078125,0.988525390625,0.10205078125,0.6103515028953552,1.2817381620407104,-0.8544921278953552,66.66667175292969,1398022.0,1.0
23091.1461364,220968.46875,228412.046875,684110.875,336138.25,-709056.3125,331642.0625,236679.234375,-708289.375,-0.13427734375,0.9873046875,0.10302734375,0.5798339247703552,1.4343260526657104,-0.7324218153953552,66.66667175292969,1398023.0,1.0
23091.1485114,221034.53125,228496.796875,684202.875,336250.71875,-709051.75,331734.6875,236753.09375,-708285.0,-0.133056640625,0.987060546875,0.103759765625,0.6408690810203552,1.5258787870407104,-0.8239745497703552,66.66667175292969,1398024.0,1.0
23091.1511569,220678.96875,228194.421875,683881.25,335949.3125,-709064.6875,331488.625,236436.578125,-708297.875,-0.135009765625,0.986572265625,0.1025390625,0.5798339247703552,1.6784666776657104,-0.5798339247703552,66.66667175292969,1398025.0,1.0
23091.1534923,220426.921875,227917.796875,683571.5625,335628.1875,-709071.5,331248.125,236166.046875,-708304.5625,-0.134521484375,0.98583984375,0.099609375,0.6103515028953552,1.7700194120407104,-0.4272460639476776,66.66667175292969,1398026.0,1.0
23091.1704515,220785.71875,228210.703125,683881.0625,335917.3125,-709070.4375,331494.09375,236477.796875,-708303.75,-0.134033203125,0.98583984375,0.099365234375,0.7019042372703552,1.8005369901657104,-0.4882812201976776,66.66667175292969,1398027.0,1.0
23091.1704676,220964.96875,228401.84375,684084.625,336137.4375,-709074.0,331671.5625,236677.8125,-708307.25,-0.134033203125,0.986572265625,0.10009765625,0.8239745497703552,1.9531248807907104,-0.3662109076976776,66.66667175292969,1398028.0,1.0
23091.1723721,221034.71875,228489.46875,684182.25,336258.84375,-709068.1875,331768.84375,236759.25,-708301.125,-0.134033203125,0.986083984375,0.098388671875,0.8850097060203552,2.105712652206421,-0.1525878757238388,66.66667175292969,1398029.0,1.0
23091.1754313,220679.859375,228187.984375,683854.875,335951.375,-709074.375,331517.15625,236437.921875,-708306.9375,-0.133544921875,0.986572265625,0.094970703125,0.8544921278953552,2.136230230331421,-0.03051757626235485,66.66667175292969,1398030.0,1.0
23091.175447,220432.734375,227921.28125,683552.4375,335622.53125,-709079.8125,331273.34375,236164.96875,-708312.6875,-0.135498046875,0.986572265625,0.09619140625,0.8544921278953552,2.258300542831421,0.1831054538488388,66.66667175292969,1398031.0,1.0
23091.1773653,220792.515625,228216.0625,683893.5,335910.4375,-709069.25,331522.4375,236480.3125,-708302.3125,-0.134521484375,0.986328125,0.0966796875,0.8850097060203552,2.410888433456421,0.0915527269244194,66.66667175292969,1398032.0,1.0
23091.181196,220961.75,228397.640625,684103.125,336122.6875,-709063.375,331691.78125,236672.625,-708296.4375,-0.134521484375,0.98876953125,0.095458984375,1.0375975370407104,2.502441167831421,0.2136230319738388,66.66667175292969,1398033.0,1.0
23091.194288,221025.859375,228472.390625,684196.125,336237.125,-709066.6875,331783.21875,236749.15625,-708299.8125,-0.134765625,0.99072265625,0.096435546875,0.9460448622703552,2.563476324081421,0.3051757514476776,66.66667175292969,1398034.0,1.0
23091.1943044,220673.0625,228169.390625,683873.5,335934.03125,-709078.375,331537.28125,236434.078125,-708311.25,-0.134521484375,0.991943359375,0.096435546875,0.9155272841453552,2.593993902206421,0.2746581733226776,66.66667175292969,1398035.0,1.0
23091.1959977,220428.796875,227902.6875,683566.6875,335610.65625,-709075.3125,331294.71875,236162.28125,-708308.3125,-0.134765625,0.993408203125,0.096435546875,0.8239745497703552,2.593993902206421,0.4272460639476776,66.66667175292969,1398036.0,1.0
23091.1984776,220788.75,228198.0,683889.5,335904.0,-709053.6875,331543.96875,236476.109375,-708287.0,-0.1337890625,0.991943359375,0.09619140625,0.7629393935203552,2.746581792831421,0.5187987685203552,66.66667175292969,1398037.0,1.0
23091.2023634,220961.40625,228384.5,684097.0,336121.625,-709049.0625,331717.875,236671.546875,-708282.5,-0.13330078125,0.990966796875,0.09375,0.6408690810203552,2.807616949081421,0.3967284858226776,66.66667175292969,1398038.0,1.0
23091.2142923,221032.75,228472.65625,684196.5625,336241.25,-709055.5,331816.21875,236751.5625,-708289.0,-0.133544921875,0.991943359375,0.094970703125,0.6103515028953552,2.838134527206421,0.3967284858226776,66.66667175292969,1398039.0,1.0
23091.2143089,220679.59375,228165.71875,683873.75,335937.53125,-709075.125,331569.90625,236434.4375,-708308.25,-0.132568359375,0.989013671875,0.09423828125,0.6103515028953552,2.899169683456421,0.3967284858226776,66.66667175292969,1398040.0,1.0
23091.2165908,220431.84375,227896.875,683573.25,335611.28125,-709078.4375,331327.78125,236160.40625,-708310.875,-0.131103515625,0.989501953125,0.09375,0.4577636420726776,3.021239995956421,0.3662109076976776,66.66667175292969,1398041.0,1.0
23091.2166075,220785.890625,228189.234375,683909.25,335895.9375,-709059.3125,331570.8125,236467.875,-708292.1875,-0.13330078125,0.99169921875,0.094970703125,0.4577636420726776,3.051757574081421,0.3051757514476776,66.66667175292969,1398042.0,1.0
23091.2184981,220963.8125,228379.5,684125.125,336115.0,-709054.75,331744.0625,236664.578125,-708287.9375,-0.131591796875,0.99169921875,0.095458984375,0.4577636420726776,3.143310308456421,0.2746581733226776,66.66667175292969,1398043.0,1.0
23091.229865,221032.484375,228463.53125,684226.4375,336231.21875,-709050.1875,331837.15625,236743.515625,-708283.5625,-0.1328125,0.990478515625,0.09619140625,0.3967284858226776,3.173827886581421,0.3051757514476776,66.66667175292969,1398044.0,1.0
23091.2327507,220674.578125,228155.078125,683899.9375,335924.21875,-709065.9375,331586.625,236426.21875,-708299.125,-0.13232421875,0.989990234375,0.098388671875,0.2441406100988388,3.204345464706421,0.3662109076976776,66.66667175292969,1398045.0,1.0
23091.2327694,220426.296875,227885.4375,683582.0625,335593.65625,-709070.25,331340.125,236148.6875,-708303.0625,-0.1318359375,0.989013671875,0.09716796875,0.2441406100988388,3.295898199081421,0.4577636420726776,66.66667175292969,1398046.0,1.0
23091.2411634,220791.34375,228190.9375,683915.875,335888.25,-709049.3125,331593.875,236466.53125,-708282.5,-0.135498046875,0.989013671875,0.096435546875,0.2746581733226776,3.295898199081421,0.3051757514476776,66.66667175292969,1398047.0,1.0
23091.2454726,220958.0,228370.109375,684122.8125,336094.25,-709048.0625,331759.1875,236653.84375,-708281.125,-0.13525390625,0.98779296875,0.099609375,0.1831054538488388,3.295898199081421,0.3967284858226776,66.66667175292969,1398048.0,1.0
23091.2454897,221029.171875,228454.15625,684227.4375,336211.46875,-709046.4375,331852.4375,236734.40625,-708279.9375,-0.135986328125,0.9873046875,0.09765625,0.2746581733226776,3.234863042831421,0.3356933295726776,66.66667175292969,1398049.0,1.0
23091.2510067,220685.21875,228162.421875,683910.75,335914.0,-709057.25,331610.125,236423.703125,-708290.4375,-0.1357421875,0.986572265625,0.097900390625,0.2746581733226776,3.173827886581421,0.3662109076976776,66.66667175292969,1398050.0,1.0
23091.2604344,220439.359375,227896.4375,683589.9375,335588.9375,-709057.1875,331366.5,236149.40625,-708289.875,-0.135009765625,0.9873046875,0.0966796875,0.2746581733226776,3.173827886581421,0.3662109076976776,66.66667175292969,1398051.0,1.0
23091.2604498,220795.453125,228183.78125,683894.8125,335879.78125,-709039.5,331614.34375,236462.515625,-708272.4375,-0.136962890625,0.9892578125,0.09619140625,0.2136230319738388,3.143310308456421,0.3967284858226776,66.66667175292969,1398052.0,1.0
23091.262394,220971.59375,228371.0,684101.75,336100.34375,-709035.75,331790.75,236659.921875,-708269.4375,-0.136474609375,0.987548828125,0.09326171875,0.2746581733226776,3.082275152206421,0.3356933295726776,66.66667175292969,1398053.0,1.0
23091.2661708,221038.828125,228454.421875,684196.875,336214.5,-709044.5625,331883.46875,236733.328125,-708277.75,-0.135986328125,0.9873046875,0.09326171875,0.2441406100988388,3.021239995956421,0.3356933295726776,66.66667175292969,1398054.0,1.0
23091.2729787,220694.515625,228166.0,683878.3125,335915.96875,-709061.9375,331640.53125,236418.25,-708294.5625,-0.135986328125,0.98876953125,0.09716796875,0.2441406100988388,2.899169683456421,0.2136230319738388,66.66667175292969,1398055.0,1.0
23091.2729953,220432.109375,227887.125,683564.1875,335579.4375,-709070.4375,331387.34375,236134.5625,-708302.75,-0.136474609375,0.988525390625,0.0986328125,0.2441406100988388,2.746581792831421,0.2746581733226776,66.66667175292969,1398056.0,1.0
23091.2837629,220783.65625,228175.015625,683889.625,335871.71875,-709051.125,331637.125,236450.265625,-708284.4375,-0.1376953125,0.987548828125,0.0986328125,0.2441406100988388,2.624511480331421,0.3356933295726776,66.66667175292969,1398057.0,1.0
23091.2865573,220964.078125,228369.75,684101.375,336093.28125,-709044.0625,331814.96875,236649.90625,-708278.0625,-0.13916015625,0.987060546875,0.1005859375,0.2136230319738388,2.593993902206421,0.3662109076976776,66.66667175292969,1398058.0,1.0
23091.2865735,221037.578125,228459.34375,684204.0,336213.34375,-709044.8125,331913.84375,236733.328125,-708278.25,-0.137939453125,0.987548828125,0.095947265625,0.2441406100988388,2.563476324081421,0.4272460639476776,66.66667175292969,1398059.0,1.0
23091.2884923,220690.3125,228166.34375,683893.5,335918.46875,-709058.3125,331676.21875,236424.515625,-708291.4375,-0.13720703125,0.986572265625,0.096435546875,0.2136230319738388,2.532958745956421,0.5187987685203552,66.66667175292969,1398060.0,1.0
23091.2984308,220440.875,227902.515625,683584.4375,335595.28125,-709063.4375,331435.25,236149.234375,-708296.5,-0.135498046875,0.98779296875,0.09814453125,0.2746581733226776,2.441406011581421,0.5493163466453552,66.66667175292969,1398061.0,1.0
23091.3016232,220784.46875,228182.359375,683903.125,335876.46875,-709051.4375,331676.375,236455.453125,-708285.0,-0.135986328125,0.990234375,0.09765625,0.2746581733226776,2.349853277206421,0.4882812201976776,66.66667175292969,1398062.0,1.0
23091.3016391,220958.71875,228368.046875,684112.375,336096.40625,-709046.375,331854.40625,236655.625,-708279.625,-0.1357421875,0.98828125,0.09765625,0.2746581733226776,2.288818120956421,0.4882812201976776,66.66667175292969,1398063.0,1.0
23091.3073,221039.8125,228468.90625,684217.3125,336223.8125,-709040.0,331959.28125,236743.34375,-708273.1875,-0.134521484375,0.98779296875,0.099365234375,0.1525878757238388,2.105712652206421,0.5493163466453552,66.66667175292969,1398064.0,1.0
23091.3117006,220697.921875,228184.328125,683907.0,335928.9375,-709055.1875,331721.0,236435.25,-708288.4375,-0.131103515625,0.989990234375,0.100830078125,0.1525878757238388,2.197265386581421,0.4577636420726776,66.66667175292969,1398065.0,1.0
23091.311718,220435.234375,227900.90625,683591.6875,335595.53125,-709062.375,331470.9375,236155.21875,-708295.0625,-0.1298828125,0.989501953125,0.10009765625,0.1525878757238388,2.136230230331421,0.4577636420726776,66.66667175292969,1398066.0,1.0
23091.3174283,220788.125,228186.203125,683903.0625,335882.09375,-709049.0625,331717.4375,236466.8125,-708282.3125,-0.13037109375,0.990478515625,0.101318359375,0.1220703050494194,2.136230230331421,0.4272460639476776,66.66667175292969,1398067.0,1.0
23091.3265425,220968.375,228379.40625,684118.0,336101.9375,-709042.875,331896.0625,236666.09375,-708276.5,-0.12890625,0.989501953125,0.105712890625,0.03051757626235485,2.136230230331421,0.3356933295726776,66.66667175292969,1398068.0,1.0
23091.3265588,221045.703125,228470.953125,684223.0625,336230.25,-709041.875,332000.21875,236755.765625,-708275.3125,-0.1298828125,0.99072265625,0.10302734375,-0.03051757626235485,2.105712652206421,0.2746581733226776,66.66667175292969,1398069.0,1.0
23091.3311725,220695.40625,228174.3125,683901.625,335932.59375,-709053.875,331755.875,236443.828125,-708287.125,-0.13134765625,0.991943359375,0.1005859375,-0.03051757626235485,2.075195074081421,0.1220703050494194,66.66667175292969,1398070.0,1.0
23091.3334519,220436.40625,227897.59375,683580.125,335598.84375,-709063.0,331505.09375,236160.859375,-708296.0625,-0.13037109375,0.992431640625,0.09912109375,-0.1220703050494194,2.288818120956421,0.1220703050494194,66.66667175292969,1398071.0,1.0
23091.3374336,220796.984375,228198.890625,683899.5625,335892.375,-709045.1875,331759.4375,236478.15625,-708278.25,-0.130126953125,0.98974609375,0.104248046875,-0.1525878757238388,2.319335699081421,0.0610351525247097,66.66667175292969,1398072.0,1.0
23091.351593,220968.1875,228378.875,684103.125,336109.8125,-709040.9375,331935.40625,236677.09375,-708274.125,-0.130126953125,0.98876953125,0.102783203125,-0.1220703050494194,2.319335699081421,-0.0610351525247097,66.66667175292969,1398073.0,1.0
23091.3516094,221042.765625,228466.046875,684203.3125,336229.25,-709044.5625,332033.75,236760.0625,-708277.75,-0.1298828125,0.986572265625,0.105224609375,-0.0610351525247097,2.319335699081421,-0.1525878757238388,66.66667175292969,1398074.0,1.0
23091.3583853,220689.875,228168.859375,683881.0,335926.25,-709055.125,331784.75,236440.875,-708288.625,-0.130859375,0.986572265625,0.105712890625,0.03051757626235485,2.380370855331421,-0.2441406100988388,66.66667175292969,1398075.0,1.0
23091.3584009,220442.390625,227904.5625,683553.125,335607.25,-709061.0,331546.84375,236167.921875,-708293.8125,-0.1298828125,0.9833984375,0.103759765625,0.1220703050494194,2.471923589706421,-0.1220703050494194,66.66667175292969,1398076.0,1.0
23091.3584052,220806.546875,228206.21875,683878.75,335907.21875,-709045.3125,331803.34375,236490.5,-708278.4375,-0.132080078125,0.98291015625,0.10302734375,0.1525878757238388,2.410888433456421,-0.1831054538488388,66.66667175292969,1398077.0,1.0
23091.3615845,220983.578125,228396.21875,684102.4375,336130.28125,-709038.25,331982.78125,236693.90625,-708271.5,-0.131591796875,0.984130859375,0.101318359375,0.2441406100988388,2.563476324081421,-0.2136230319738388,66.66667175292969,1398078.0,1.0
23091.3616024,221048.578125,228475.515625,684195.6875,336242.59375,-709040.1875,332071.9375,236766.3125,-708273.1875,-0.133544921875,0.982421875,0.1005859375,0.4272460639476776,2.655029058456421,-0.2136230319738388,66.66667175292969,1398079.0,1.0
23091.3773265,220705.0625,228188.34375,683885.25,335953.34375,-709054.5,331835.28125,236458.765625,-708287.3125,-0.133544921875,0.981689453125,0.103271484375,0.5798339247703552,2.532958745956421,-0.2441406100988388,66.66667175292969,1398080.0,1.0
23091.3822763,220443.640625,227908.046875,683569.6875,335621.5625,-709065.3125,331586.09375,236175.703125,-708297.875,-0.134521484375,0.981689453125,0.10546875,0.7324218153953552,2.502441167831421,-0.2441406100988388,66.66667175292969,1398081.0,1.0
23091.3822916,220797.15625,228193.53125,683899.125,335903.28125,-709057.625,331827.3125,236481.109375,-708291.25,-0.134033203125,0.983154296875,0.10400390625,0.8239745497703552,2.441406011581421,-0.2136230319738388,66.66667175292969,1398082.0,1.0
23091.3822959,220975.25,228380.65625,684108.9375,336118.3125,-709062.125,331996.09375,236674.859375,-708295.5,-0.13671875,0.985595703125,0.103515625,0.7934569716453552,2.471923589706421,-0.2136230319738388,66.66667175292969,1398083.0,1.0
23091.3865809,221044.546875,228466.484375,684204.25,336234.4375,-709060.5625,332087.84375,236753.171875,-708294.8125,-0.136474609375,0.986572265625,0.1044921875,0.9155272841453552,2.502441167831421,-0.03051757626235485,66.66667175292969,1398084.0,1.0
23091.3865972,220688.96875,228166.4375,683880.0625,335929.46875,-709072.75,331841.0,236434.796875,-708306.4375,-0.13671875,0.985107421875,0.103759765625,1.0070799589157104,2.471923589706421,0.03051757626235485,66.66667175292969,1398085.0,1.0
23091.3963277,220431.84375,227890.890625,683575.75,335596.78125,-709075.6875,331594.3125,236155.3125,-708308.5625,-0.13720703125,0.98779296875,0.101806640625,1.0070799589157104,2.441406011581421,0.0610351525247097,66.66667175292969,1398086.0,1.0
23091.4035991,220785.09375,228178.234375,683898.875,335883.53125,-709061.5,331840.09375,236466.265625,-708295.0,-0.137939453125,0.990478515625,0.101318359375,1.0986326932907104,2.380370855331421,-0.03051757626235485,66.66667175292969,1398087.0,1.0
23091.4061646,220959.15625,228364.390625,684101.75,336098.8125,-709062.125,332012.1875,236661.4375,-708295.5,-0.136962890625,0.991455078125,0.1025390625,1.1901854276657104,2.441406011581421,0.0915527269244194,66.66667175292969,1398088.0,1.0
23091.4127419,221038.015625,228458.359375,684201.3125,336220.0625,-709062.125,332111.90625,236745.84375,-708295.8125,-0.139892578125,0.99267578125,0.10205078125,1.0986326932907104,2.227782964706421,0.1525878757238388,66.66667175292969,1398089.0,1.0
23091.4127564,220686.921875,228158.84375,683876.3125,335916.4375,-709071.75,331863.53125,236430.140625,-708305.0,-0.1376953125,0.992919921875,0.10205078125,1.1291502714157104,2.197265386581421,0.1831054538488388,66.66667175292969,1398090.0,1.0
23091.4242011,220428.984375,227880.34375,683566.0625,335577.75,-709067.9375,331610.59375,236144.671875,-708300.375,-0.13720703125,0.9931640625,0.103759765625,1.0375975370407104,2.044677495956421,0.2441406100988388,66.66667175292969,1398091.0,1.0
23091.4242181,220782.140625,228169.390625,683883.0625,335863.0625,-709056.75,331854.75,236451.609375,-708289.8125,-0.136962890625,0.994384765625,0.103271484375,0.8850097060203552,1.9226073026657104,0.2441406100988388,66.66667175292969,1398092.0,1.0
23091.4271987,220961.3125,228362.953125,684096.4375,336085.5,-709061.375,332033.46875,236653.9375,-708294.0625,-0.13525390625,0.99609375,0.102783203125,0.7324218153953552,1.9531248807907104,0.2136230319738388,66.66667175292969,1398093.0,1.0
23091.4272142,221028.09375,228450.84375,684189.1875,336199.5,-709061.75,332125.65625,236729.84375,-708294.625,-0.132568359375,0.998291015625,0.103759765625,0.5798339247703552,1.9531248807907104,0.3356933295726776,66.66667175292969,1398094.0,1.0
23091.4272186,220681.46875,228157.40625,683873.0,335906.3125,-709071.1875,331886.59375,236421.03125,-708304.125,-0.132080078125,0.99658203125,0.10107421875,0.4882812201976776,2.014159917831421,0.3662109076976776,66.66667175292969,1398095.0,1.0
23091.4297647,220425.578125,227886.59375,683561.375,335575.15625,-709068.25,331641.875,236142.4375,-708300.6875,-0.13037109375,0.994873046875,0.10107421875,0.3967284858226776,1.9836424589157104,0.5798339247703552,66.66667175292969,1398096.0,1.0
23091.4436131,220776.140625,228173.234375,683894.0625,335863.21875,-709049.875,331889.625,236457.859375,-708282.375,-0.132080078125,0.9931640625,0.102294921875,0.2441406100988388,1.9836424589157104,0.4882812201976776,66.66667175292969,1398097.0,1.0
23091.4510994,220951.5625,228359.375,684103.4375,336080.9375,-709045.8125,332064.875,236656.609375,-708278.4375,-0.130859375,0.9921875,0.1025390625,0.1525878757238388,2.075195074081421,0.4577636420726776,66.66667175292969,1398098.0,1.0
23091.4511165,221027.375,228452.1875,684199.25,336197.4375,-709049.5,332159.09375,236732.96875,-708282.5625,-0.1318359375,0.99072265625,0.102294921875,0.0915527269244194,2.044677495956421,0.3051757514476776,66.66667175292969,1398099.0,1.0
23091.451121,220689.609375,228170.109375,683885.6875,335906.3125,-709060.6875,331923.5,236427.90625,-708293.8125,-0.131103515625,0.989013671875,0.1025390625,-0.0610351525247097,2.044677495956421,0.3051757514476776,66.66667175292969,1398100.0,1.0
23091.4561148,220429.421875,227893.65625,683572.5,335572.125,-709065.5625,331674.875,236147.0,-708298.5,-0.1337890625,0.988037109375,0.103515625,-0.0610351525247097,1.9531248807907104,0.3662109076976776,66.66667175292969,1398101.0,1.0
23091.4586765,220776.328125,228180.828125,683893.25,335856.96875,-709058.25,331920.1875,236456.34375,-708291.25,-0.131103515625,0.9873046875,0.10107421875,-0.1525878757238388,2.075195074081421,0.4272460639476776,66.66667175292969,1398102.0,1.0
23091.4609307,220954.96875,228371.984375,684108.8125,336078.53125,-709056.3125,332096.78125,236656.171875,-708289.5625,-0.1298828125,0.9873046875,0.100341796875,-0.1525878757238388,2.075195074081421,0.4272460639476776,66.66667175292969,1398103.0,1.0
23091.4748591,221023.265625,228451.296875,684200.8125,336195.375,-709050.9375,332187.0,236733.421875,-708284.4375,-0.131103515625,0.987060546875,0.102294921875,-0.1831054538488388,2.075195074081421,0.4577636420726776,66.66667175292969,1398104.0,1.0
23091.4779807,220683.96875,228165.640625,683892.625,335904.90625,-709065.3125,331950.15625,236428.984375,-708298.75,-0.130859375,0.98779296875,0.104248046875,-0.0915527269244194,2.197265386581421,0.4577636420726776,66.66667175292969,1398105.0,1.0
23091.4779964,220425.21875,227891.609375,683583.6875,335571.125,-709074.4375,331704.28125,236150.21875,-708307.4375,-0.12939453125,0.98876953125,0.100341796875,-0.03051757626235485,2.166747808456421,0.5493163466453552,66.66667175292969,1398106.0,1.0
23091.4798564,220775.703125,228178.953125,683894.375,335853.9375,-709064.9375,331946.75,236457.0625,-708297.875,-0.131103515625,0.9873046875,0.0986328125,-0.03051757626235485,2.166747808456421,0.3662109076976776,66.66667175292969,1398107.0,1.0
23091.4823688,220952.71875,228371.625,684110.6875,336076.65625,-709053.8125,332122.875,236657.0625,-708287.1875,-0.13427734375,0.988037109375,0.1025390625,0.0,2.227782964706421,0.3051757514476776,66.66667175292969,1398108.0,1.0
23091.4860365,221030.6875,228467.734375,684217.3125,336205.9375,-709053.4375,332226.15625,236745.125,-708287.1875,-0.134521484375,0.98876953125,0.100830078125,0.0,2.227782964706421,0.2441406100988388,66.66667175292969,1398109.0,1.0
23091.4978972,220681.28125,228171.625,683899.1875,335911.5,-709070.6875,331984.9375,236435.875,-708304.125,-0.1357421875,0.98974609375,0.100830078125,-0.0915527269244194,2.105712652206421,0.0915527269244194,66.66667175292969,1398110.0,1.0
23091.4979138,220417.0,227889.640625,683577.25,335578.46875,-709071.6875,331738.71875,236154.78125,-708304.8125,-0.140380859375,0.991455078125,0.1015625,-0.0610351525247097,2.136230230331421,0.03051757626235485,66.66667175292969,1398111.0,1.0
23091.5001681,220776.0625,228185.390625,683904.375,335871.53125,-709050.75,331990.375,236469.484375,-708284.25,-0.1416015625,0.990966796875,0.1025390625,0.0610351525247097,1.9836424589157104,-0.0610351525247097,66.66667175292969,1398112.0,1.0
23091.5001851,220954.25,228374.84375,684117.125,336094.96875,-709042.0,332168.3125,236670.296875,-708276.1875,-0.140625,0.991943359375,0.1025390625,-0.0915527269244194,1.8005369901657104,-0.2136230319738388,66.66667175292969,1398113.0,1.0
23091.5059465,221025.5,228464.96875,684215.0,336215.84375,-709040.8125,332265.125,236752.453125,-708275.125,-0.141357421875,0.990234375,0.1015625,-0.03051757626235485,1.6784666776657104,-0.2441406100988388,66.66667175292969,1398114.0,1.0
23091.5109471,220688.34375,228184.40625,683914.125,335932.53125,-709059.25,332035.71875,236454.28125,-708292.5625,-0.139892578125,0.991455078125,0.100341796875,-0.1220703050494194,1.5563963651657104,-0.2136230319738388,66.66667175292969,1398115.0,1.0
23091.5134371,220414.3125,227890.265625,683588.0,335590.1875,-709069.0625,331777.59375,236164.875,-708302.125,-0.137939453125,0.99267578125,0.10205078125,-0.1220703050494194,1.3732908964157104,-0.1831054538488388,66.66667175292969,1398116.0,1.0
23091.5171671,220767.5625,228179.046875,683909.0625,335872.875,-709053.625,332021.40625,236474.9375,-708286.9375,-0.13818359375,0.993408203125,0.101806640625,-0.2746581733226776,1.3427733182907104,-0.1525878757238388,66.66667175292969,1398117.0,1.0
23091.5259232,220943.515625,228366.796875,684131.9375,336089.4375,-709045.3125,332196.375,236670.828125,-708279.0,-0.135498046875,0.993896484375,0.1015625,-0.3051757514476776,1.2817381620407104,-0.1831054538488388,66.66667175292969,1398118.0,1.0
23091.530237,221016.203125,228451.734375,684233.9375,336208.78125,-709049.25,332294.46875,236750.5,-708283.1875,-0.136474609375,0.99365234375,0.102294921875,-0.4272460639476776,1.2512205839157104,-0.1220703050494194,66.66667175292969,1398119.0,1.0
23091.5302496,220674.9375,228165.546875,683926.9375,335922.3125,-709058.625,332060.9375,236447.40625,-708291.875,-0.134033203125,0.99267578125,0.10302734375,-0.4577636420726776,1.2817381620407104,0.0,66.66667175292969,1398120.0,1.0
23091.5577678,220417.171875,227895.171875,683611.9375,335596.09375,-709061.5,331818.09375,236169.078125,-708294.0625,-0.1328125,0.99365234375,0.10498046875,-0.5187987685203552,1.3427733182907104,0.3356933295726776,66.66667175292969,1398121.0,1.0
23091.5577807,220775.25,228196.84375,683934.8125,335889.6875,-709048.5,332071.46875,236484.5,-708281.75,-0.134033203125,0.995849609375,0.103515625,-0.6103515028953552,1.3427733182907104,0.4272460639476776,66.66667175292969,1398122.0,1.0
23091.5596525,220946.375,228381.734375,684148.8125,336106.78125,-709049.3125,332245.8125,236681.46875,-708282.8125,-0.134521484375,0.9970703125,0.105224609375,-0.6408690810203552,1.3732908964157104,0.5493163466453552,66.66667175292969,1398123.0,1.0
23091.5621857,221022.015625,228471.859375,684251.75,336232.125,-709048.625,332346.21875,236765.421875,-708282.3125,-0.134521484375,0.99560546875,0.10595703125,-0.7324218153953552,1.4648436307907104,0.5798339247703552,66.66667175292969,1398124.0,1.0
23091.5646843,220689.328125,228196.65625,683951.875,335948.53125,-709056.0,332115.65625,236465.203125,-708289.625,-0.1337890625,0.994873046875,0.105224609375,-0.7629393935203552,1.5258787870407104,0.7629393935203552,66.66667175292969,1398125.0,1.0
23091.5671635,220424.953125,227919.3125,683623.125,335611.28125,-709054.6875,331864.5,236179.265625,-708287.75,-0.1328125,0.994873046875,0.104736328125,-0.7934569716453552,1.4953612089157104,0.7629393935203552,66.66667175292969,1398126.0,1.0
23091.569669,220771.671875,228205.328125,683932.375,335892.71875,-709045.75,332109.21875,236486.46875,-708278.6875,-0.13330078125,0.99267578125,0.107421875,-0.8544921278953552,1.4953612089157104,0.9155272841453552,66.66667175292969,1398127.0,1.0
23091.5721379,220953.625,228399.96875,684149.8125,336118.3125,-709048.4375,332291.6875,236693.625,-708281.9375,-0.134765625,0.9931640625,0.109375,-0.7934569716453552,1.5869139432907104,1.0070799589157104,66.66667175292969,1398128.0,1.0
23091.5746577,221037.578125,228503.140625,684262.8125,336251.96875,-709044.5625,332403.53125,236790.1875,-708278.625,-0.1337890625,0.990234375,0.110107421875,-0.7629393935203552,1.6479490995407104,1.0070799589157104,66.66667175292969,1398129.0,1.0
23091.577165,220688.625,228210.96875,683948.5,335957.71875,-709054.6875,332163.375,236479.953125,-708288.25,-0.13232421875,0.98974609375,0.107421875,-0.8544921278953552,1.6784666776657104,1.1901854276657104,66.66667175292969,1398130.0,1.0
23091.5796755,220411.90625,227914.84375,683619.4375,335608.25,-709070.9375,331900.53125,236185.265625,-708304.1875,-0.130615234375,0.986083984375,0.107421875,-0.7019042372703552,1.7089842557907104,1.0681151151657104,66.66667175292969,1398131.0,1.0
23091.5827402,220775.171875,228214.359375,683944.0,335904.71875,-709052.5625,332156.40625,236508.296875,-708286.0625,-0.129638671875,0.984130859375,0.107421875,-0.5798339247703552,1.8310545682907104,1.0070799589157104,66.66667175292969,1398132.0,1.0
23091.5827498,220955.9375,228408.015625,684161.5625,336128.5,-709041.6875,332336.75,236711.15625,-708275.5,-0.128173828125,0.981201171875,0.109375,-0.4882812201976776,1.8920897245407104,0.8239745497703552,66.66667175292969,1398133.0,1.0
23091.5847053,221034.984375,228500.015625,684269.1875,336255.46875,-709040.125,332437.96875,236795.828125,-708274.125,-0.126708984375,0.97998046875,0.1083984375,-0.3662109076976776,1.9226073026657104,0.8544921278953552,66.66667175292969,1398134.0,1.0
23091.5964919,220691.65625,228211.59375,683960.375,335968.0,-709061.0,332202.46875,236491.65625,-708294.6875,-0.12744140625,0.979736328125,0.107177734375,-0.1525878757238388,2.075195074081421,0.8850097060203552,66.66667175292969,1398135.0,1.0
23091.596505,220428.171875,227931.828125,683640.9375,335634.625,-709061.375,331955.25,236209.140625,-708294.5625,-0.124755859375,0.9794921875,0.1083984375,0.0915527269244194,2.197265386581421,0.9155272841453552,66.66667175292969,1398136.0,1.0
23091.5989663,220780.53125,228219.1875,683944.5625,335922.9375,-709048.6875,332203.1875,236522.6875,-708282.3125,-0.124267578125,0.978759765625,0.1103515625,0.2746581733226776,2.349853277206421,0.7934569716453552,66.66667175292969,1398137.0,1.0
23091.5989762,220952.546875,228403.375,684144.8125,336138.4375,-709048.25,332373.6875,236717.59375,-708282.1875,-0.123291015625,0.980224609375,0.109130859375,0.4882812201976776,2.410888433456421,0.6713866591453552,66.66667175292969,1398138.0,1.0
23091.6071916,221033.8125,228499.296875,684249.8125,336263.5,-709051.375,332473.1875,236803.15625,-708285.3125,-0.12255859375,0.98291015625,0.10986328125,0.6408690810203552,2.563476324081421,0.6408690810203552,66.66667175292969,1398139.0,1.0
23091.6096971,220692.640625,228212.75,683944.5625,335978.125,-709063.625,332238.3125,236500.421875,-708297.0625,-0.125244140625,0.98291015625,0.10888671875,0.8850097060203552,2.777099370956421,0.5493163466453552,66.66667175292969,1398140.0,1.0
23091.6158967,220420.9375,227923.34375,683605.6875,335646.3125,-709071.5625,331988.59375,236215.21875,-708304.625,-0.12646484375,0.9853515625,0.108642578125,1.0070799589157104,2.929687261581421,0.5798339247703552,66.66667175292969,1398141.0,1.0
23091.6252424,220776.328125,228216.0625,683912.5625,335930.375,-709056.625,332231.4375,236520.265625,-708290.0625,-0.126708984375,0.9873046875,0.106689453125,1.0681151151657104,2.929687261581421,0.4577636420726776,66.66667175292969,1398142.0,1.0
23091.6252558,220953.796875,228405.25,684130.25,336152.8125,-709043.5,332408.90625,236719.203125,-708277.0,-0.126220703125,0.98828125,0.10546875,1.1291502714157104,2.990722417831421,0.3967284858226776,66.66667175292969,1398143.0,1.0
23091.6277468,221018.890625,228484.109375,684224.6875,336266.90625,-709041.0625,332498.40625,236793.140625,-708274.4375,-0.1259765625,0.990234375,0.107666015625,1.1291502714157104,3.112792730331421,0.2746581733226776,66.66667175292969,1398144.0,1.0
23091.6277568,220674.21875,228191.734375,683905.8125,335969.8125,-709061.1875,332253.15625,236478.421875,-708294.625,-0.126953125,0.991943359375,0.10693359375,1.0986326932907104,3.143310308456421,0.1220703050494194,66.66667175292969,1398145.0,1.0
23091.6358963,220412.890625,227916.015625,683583.5,335640.4375,-709068.625,332005.5,236196.609375,-708301.25,-0.129150390625,0.9931640625,0.107666015625,1.1596678495407104,3.356933355331421,0.1831054538488388,66.66667175292969,1398146.0,1.0
23091.6477352,220760.5,228202.65625,683894.8125,335923.9375,-709053.625,332247.4375,236499.4375,-708287.3125,-0.1298828125,0.994384765625,0.106201171875,1.1291502714157104,3.295898199081421,0.1220703050494194,66.66667175292969,1398147.0,1.0
23091.6477472,220930.734375,228378.78125,684098.75,336143.34375,-709052.25,332423.5625,236696.140625,-708286.0625,-0.131103515625,0.99658203125,0.10791015625,1.0375975370407104,3.295898199081421,0.1220703050494194,66.66667175292969,1398148.0,1.0
23091.6496845,221013.96875,228474.71875,684202.0625,336270.125,-709049.875,332525.40625,236781.515625,-708283.5625,-0.1318359375,0.997314453125,0.10986328125,0.9155272841453552,3.204345464706421,0.0915527269244194,66.66667175292969,1398149.0,1.0
23091.6539779,220679.140625,228195.765625,683899.3125,335983.03125,-709063.875,332291.34375,236477.796875,-708297.375,-0.132080078125,0.99609375,0.111083984375,0.7629393935203552,3.265380620956421,0.03051757626235485,66.66667175292969,1398150.0,1.0
23091.6539879,220414.046875,227916.640625,683586.0,335650.4375,-709078.5625,332042.59375,236194.296875,-708311.375,-0.131103515625,0.99658203125,0.110107421875,0.7629393935203552,3.204345464706421,0.0,66.66667175292969,1398151.0,1.0
23091.6602138,220763.71875,228203.546875,683888.25,335935.28125,-709065.875,332286.9375,236503.46875,-708299.125,-0.131591796875,0.996337890625,0.1083984375,0.7019042372703552,3.082275152206421,0.03051757626235485,66.66667175292969,1398152.0,1.0
23091.6602317,220942.4375,228391.296875,684096.1875,336157.75,-709045.375,332465.40625,236703.90625,-708279.0625,-0.132080078125,0.99609375,0.107421875,0.5493163466453552,2.990722417831421,-0.0610351525247097,66.66667175292969,1398153.0,1.0
23091.6621405,221019.0625,228476.59375,684202.125,336277.71875,-709043.0625,332562.875,236784.734375,-708276.5625,-0.130615234375,0.99462890625,0.10986328125,0.5187987685203552,2.960204839706421,0.0,66.66667175292969,1398154.0,1.0
23091.6658617,220685.046875,228193.625,683895.8125,335989.46875,-709057.6875,332328.53125,236479.40625,-708291.0625,-0.13134765625,0.99267578125,0.109375,0.4272460639476776,2.990722417831421,-0.1220703050494194,66.66667175292969,1398155.0,1.0
23091.6896495,220417.453125,227908.328125,683563.75,335641.84375,-709067.0,332068.09375,236186.25,-708300.1875,-0.132568359375,0.989990234375,0.110107421875,0.4577636420726776,3.051757574081421,-0.1525878757238388,66.66667175292969,1398156.0,1.0
23091.6896625,220769.0,228191.390625,683895.3125,335922.6875,-709054.0625,332312.625,236497.03125,-708287.125,-0.133544921875,0.989501953125,0.1103515625,0.4272460639476776,2.960204839706421,-0.1220703050494194,66.66667175292969,1398157.0,1.0
23091.6896659,220948.4375,228382.796875,684107.8125,336140.75,-709052.0625,332486.40625,236697.203125,-708285.4375,-0.134765625,0.987548828125,0.109375,0.3967284858226776,2.838134527206421,0.1220703050494194,66.66667175292969,1398158.0,1.0
23091.6927309,221030.421875,228483.484375,684213.1875,336266.90625,-709048.25,332586.90625,236782.59375,-708281.75,-0.13525390625,0.987548828125,0.107177734375,0.4272460639476776,2.899169683456421,0.2136230319738388,66.66667175292969,1398159.0,1.0
23091.6927414,220690.046875,228198.453125,683906.375,335978.125,-709063.875,332349.96875,236475.484375,-708296.9375,-0.135498046875,0.987548828125,0.108154296875,0.3662109076976776,2.838134527206421,0.2441406100988388,66.66667175292969,1398160.0,1.0
23091.6946842,220419.40625,227912.703125,683572.375,335637.46875,-709080.0,332092.21875,236184.640625,-708312.9375,-0.135986328125,0.98583984375,0.104736328125,0.4272460639476776,2.716064214706421,0.3356933295726776,66.66667175292969,1398161.0,1.0
23091.6971598,220766.21875,228192.09375,683887.25,335914.0,-709059.875,332329.96875,236486.75,-708292.9375,-0.135009765625,0.984619140625,0.107177734375,0.4882812201976776,2.655029058456421,0.3967284858226776,66.66667175292969,1398162.0,1.0
23091.7009086,220942.796875,228372.078125,684100.8125,336133.40625,-709057.625,332504.46875,236686.03125,-708290.8125,-0.135009765625,0.98583984375,0.104736328125,0.5798339247703552,2.563476324081421,0.3662109076976776,66.66667175292969,1398163.0,1.0
23091.7139891,221023.171875,228465.140625,684206.9375,336260.375,-709058.4375,332605.6875,236773.296875,-708291.6875,-0.13427734375,0.98583984375,0.107177734375,0.6408690810203552,2.502441167831421,0.4577636420726776,66.66667175292969,1398164.0,1.0
23091.7140028,220687.8125,228180.65625,683900.1875,335972.9375,-709069.625,332370.28125,236469.578125,-708302.5625,-0.13525390625,0.988037109375,0.109375,0.7629393935203552,2.471923589706421,0.4882812201976776,66.66667175292969,1398165.0,1.0
23091.7159552,220425.21875,227902.875,683578.4375,335634.53125,-709071.75,332116.4375,236182.046875,-708304.4375,-0.134033203125,0.989501953125,0.107421875,0.8544921278953552,2.319335699081421,0.5493163466453552,66.66667175292969,1398166.0,1.0
23091.7184357,220777.046875,228193.625,683908.3125,335916.4375,-709056.125,332360.96875,236489.609375,-708289.4375,-0.134033203125,0.98828125,0.10693359375,0.8544921278953552,2.227782964706421,0.6713866591453552,66.66667175292969,1398167.0,1.0
23091.7221411,220954.421875,228381.828125,684129.0,336133.96875,-709052.4375,332536.65625,236687.46875,-708286.0625,-0.1337890625,0.98876953125,0.107666015625,0.7019042372703552,2.227782964706421,0.7629393935203552,66.66667175292969,1398168.0,1.0
23091.7314906,221023.890625,228464.796875,684225.5625,336246.59375,-709048.4375,332626.15625,236762.109375,-708281.75,-0.134521484375,0.989501953125,0.108642578125,0.7934569716453552,2.258300542831421,0.7019042372703552,66.66667175292969,1398169.0,1.0
23091.7315036,220682.453125,228176.984375,683917.875,335959.15625,-709059.4375,332392.90625,236460.90625,-708292.9375,-0.1318359375,0.989013671875,0.1044921875,0.7934569716453552,2.166747808456421,0.5798339247703552,66.66667175292969,1398170.0,1.0
23091.7339972,220416.28125,227893.84375,683587.0,335617.8125,-709064.9375,332138.96875,236172.75,-708298.375,-0.12841796875,0.990966796875,0.10546875,0.8239745497703552,2.166747808456421,0.7019042372703552,66.66667175292969,1398171.0,1.0
23091.7340063,220773.203125,228188.703125,683915.0625,335902.46875,-709053.8125,332384.84375,236484.859375,-708287.5625,-0.128662109375,0.989990234375,0.10595703125,0.8544921278953552,2.288818120956421,0.6408690810203552,66.66667175292969,1398172.0,1.0
23091.7421703,220958.53125,228388.96875,684135.25,336131.1875,-709046.625,332568.75,236691.484375,-708280.6875,-0.1259765625,0.99169921875,0.107421875,0.9155272841453552,2.227782964706421,0.7934569716453552,66.66667175292969,1398173.0,1.0
23091.7459043,221030.0625,228469.796875,684230.375,336247.5,-709055.9375,332660.9375,236768.015625,-708290.0625,-0.12353515625,0.992431640625,0.108642578125,0.8850097060203552,2.197265386581421,0.8239745497703552,66.66667175292969,1398174.0,1.0
23091.7552917,220687.09375,228176.359375,683919.0625,335958.1875,-709074.25,332423.21875,236461.703125,-708307.75,-0.123779296875,0.990966796875,0.1083984375,0.9155272841453552,2.288818120956421,0.7629393935203552,66.66667175292969,1398175.0,1.0
23091.7553046,220424.875,227899.734375,683590.6875,335616.28125,-709081.6875,332165.53125,236168.90625,-708314.5625,-0.1240234375,0.990478515625,0.10595703125,0.8544921278953552,2.227782964706421,1.0070799589157104,66.66667175292969,1398176.0,1.0
23091.757128,220772.921875,228178.328125,683901.75,335889.59375,-709070.6875,332400.6875,236468.421875,-708303.75,-0.126953125,0.9912109375,0.10693359375,0.8544921278953552,2.380370855331421,1.0681151151657104,66.66667175292969,1398177.0,1.0
23091.7608891,220957.109375,228371.890625,684123.0625,336114.46875,-709059.6875,332583.875,236674.671875,-708293.375,-0.129150390625,0.991455078125,0.107666015625,0.8544921278953552,2.441406011581421,0.9765624403953552,66.66667175292969,1398178.0,1.0
23091.7752365,221038.109375,228473.109375,684227.4375,336241.15625,-709060.0625,332686.15625,236760.78125,-708294.375,-0.129150390625,0.988525390625,0.10791015625,0.7629393935203552,2.441406011581421,0.8544921278953552,66.66667175292969,1398179.0,1.0
23091.7752491,220697.921875,228187.625,683921.1875,335956.21875,-709074.6875,332453.25,236458.3125,-708309.0,-0.131591796875,0.9892578125,0.107177734375,0.7324218153953552,2.471923589706421,0.7019042372703552,66.66667175292969,1398180.0,1.0
23091.7771133,220422.28125,227897.234375,683601.3125,335617.0,-709075.75,332199.78125,236167.828125,-708309.125,-0.131591796875,0.98779296875,0.104736328125,0.7324218153953552,2.349853277206421,0.5493163466453552,66.66667175292969,1398181.0,1.0
23091.7796691,220768.640625,228180.296875,683923.4375,335891.84375,-709061.1875,332435.46875,236465.546875,-708294.4375,-0.133544921875,0.986083984375,0.104248046875,0.7934569716453552,2.258300542831421,0.3051757514476776,66.66667175292969,1398182.0,1.0
23091.7821726,220950.84375,228375.03125,684146.0,336114.28125,-709062.5625,332613.1875,236666.453125,-708295.625,-0.133056640625,0.984130859375,0.106689453125,0.8850097060203552,2.105712652206421,0.1525878757238388,66.66667175292969,1398183.0,1.0
23091.7909443,221023.625,228461.03125,684247.375,336232.3125,-709064.625,332704.9375,236744.0625,-708298.0,-0.1328125,0.983154296875,0.1064453125,0.9155272841453552,2.044677495956421,0.1525878757238388,66.66667175292969,1398184.0,1.0
23091.7939948,220674.671875,228160.984375,683931.125,335933.25,-709082.6875,332458.0,236428.890625,-708316.375,-0.130126953125,0.984130859375,0.105712890625,1.0070799589157104,2.105712652206421,-0.1220703050494194,66.66667175292969,1398185.0,1.0
23091.7940097,220408.59375,227875.6875,683604.25,335595.375,-709088.5,332205.21875,236140.734375,-708321.625,-0.128662109375,0.98486328125,0.103271484375,1.0681151151657104,1.9836424589157104,-0.2136230319738388,66.66667175292969,1398186.0,1.0
23091.7959166,220769.4375,228173.234375,683928.625,335885.40625,-709068.625,332455.65625,236456.515625,-708302.0625,-0.128662109375,0.986083984375,0.102783203125,1.1596678495407104,1.9226073026657104,-0.2441406100988388,66.66667175292969,1398187.0,1.0
23091.8146793,220953.890625,228372.609375,684148.8125,336110.625,-709055.5625,332634.46875,236660.8125,-708289.625,-0.126953125,0.986572265625,0.103515625,1.0986326932907104,1.8615721464157104,-0.1220703050494194,66.66667175292969,1398188.0,1.0
23091.817745,221023.265625,228457.90625,684248.4375,336230.0625,-709051.75,332728.625,236739.859375,-708285.875,-0.12451171875,0.986328125,0.104736328125,1.1596678495407104,2.014159917831421,-0.2746581733226776,66.66667175292969,1398189.0,1.0
23091.8177548,220676.640625,228159.375,683933.8125,335936.28125,-709068.1875,332487.5,236429.4375,-708301.875,-0.125,0.987060546875,0.103759765625,1.1901854276657104,2.136230230331421,-0.2441406100988388,66.66667175292969,1398190.0,1.0
23091.8202306,220411.09375,227877.828125,683605.6875,335592.59375,-709074.6875,332231.34375,236137.078125,-708307.6875,-0.1259765625,0.986083984375,0.104248046875,1.2512205839157104,2.258300542831421,-0.1220703050494194,66.66667175292969,1398191.0,1.0
23091.8202419,220766.046875,228171.453125,683920.4375,335876.46875,-709054.25,332476.3125,236444.09375,-708287.8125,-0.1240234375,0.98828125,0.10400390625,1.1901854276657104,2.319335699081421,0.0,66.66667175292969,1398192.0,1.0
23091.8221523,220944.234375,228358.484375,684130.3125,336094.0,-709049.9375,332650.125,236641.140625,-708284.0,-0.125,0.9873046875,0.103271484375,1.0986326932907104,2.349853277206421,0.0610351525247097,66.66667175292969,1398193.0,1.0
23091.8246609,221022.109375,228451.640625,684234.125,336215.5,-709051.0,332748.03125,236724.75,-708284.875,-0.12646484375,0.989501953125,0.102294921875,1.2207030057907104,2.471923589706421,0.03051757626235485,66.66667175292969,1398194.0,1.0
23091.8284176,220680.84375,228164.03125,683925.3125,335928.75,-709059.625,332511.53125,236419.859375,-708292.9375,-0.127685546875,0.99072265625,0.100341796875,1.1291502714157104,2.410888433456421,0.1525878757238388,66.66667175292969,1398195.0,1.0
23091.8377925,220410.109375,227872.296875,683586.625,335588.5625,-709065.5,332253.0625,236126.4375,-708298.5,-0.1298828125,0.990234375,0.09912109375,1.1596678495407104,2.441406011581421,0.2746581733226776,66.66667175292969,1398196.0,1.0
23091.8378059,220760.953125,228158.03125,683899.0625,335869.3125,-709049.75,332492.59375,236432.03125,-708283.375,-0.1279296875,0.990234375,0.102294921875,1.0681151151657104,2.563476324081421,0.3967284858226776,66.66667175292969,1398197.0,1.0
23091.8396855,220943.78125,228353.84375,684114.6875,336091.84375,-709048.4375,332670.5,236635.78125,-708282.0,-0.131103515625,0.99072265625,0.100341796875,1.0375975370407104,2.593993902206421,0.3662109076976776,66.66667175292969,1398198.0,1.0
23091.8484175,221019.421875,228445.65625,684215.8125,336212.09375,-709053.0,332764.75,236718.671875,-708286.75,-0.130859375,0.992431640625,0.10009765625,0.8850097060203552,2.655029058456421,0.3967284858226776,66.66667175292969,1398199.0,1.0
23091.8514852,220686.296875,228170.46875,683912.25,335930.8125,-709066.8125,332534.59375,236421.125,-708300.4375,-0.13134765625,0.9931640625,0.1005859375,0.8850097060203552,2.624511480331421,0.4577636420726776,66.66667175292969,1398200.0,1.0
23091.8514958,220412.4375,227879.0,683577.875,335590.09375,-709075.0,332281.59375,236130.71875,-708308.25,-0.130859375,0.991455078125,0.099853515625,0.8544921278953552,2.563476324081421,0.4577636420726776,66.66667175292969,1398201.0,1.0
23091.8597228,220760.5,228162.5,683893.5,335868.15625,-709054.5,332521.46875,236433.90625,-708287.8125,-0.132080078125,0.993408203125,0.097900390625,0.6713866591453552,2.624511480331421,0.5493163466453552,66.66667175292969,1398202.0,1.0
23091.8640077,220941.640625,228353.921875,684112.125,336086.125,-709051.125,332695.53125,236634.4375,-708285.0,-0.13232421875,0.994140625,0.10009765625,0.6713866591453552,2.593993902206421,0.5493163466453552,66.66667175292969,1398203.0,1.0
23091.8640197,221022.109375,228447.453125,684221.0,336212.375,-709051.4375,332801.5625,236727.515625,-708285.125,-0.132080078125,0.99365234375,0.101806640625,0.6408690810203552,2.593993902206421,0.5798339247703552,66.66667175292969,1398204.0,1.0
23091.8721462,220691.5625,228171.171875,683916.125,335929.21875,-709064.3125,332569.75,236428.453125,-708297.5625,-0.133056640625,0.99267578125,0.099365234375,0.3967284858226776,2.502441167831421,0.6713866591453552,66.66667175292969,1398205.0,1.0
23091.8765003,220411.453125,227878.546875,683578.25,335576.9375,-709070.5625,332301.0,236126.703125,-708303.5625,-0.1318359375,0.992431640625,0.10009765625,0.3662109076976776,2.319335699081421,0.7324218153953552,66.66667175292969,1398206.0,1.0
23091.8765107,220752.8125,228153.5625,683892.25,335851.6875,-709053.1875,332534.96875,236430.0625,-708286.5,-0.130126953125,0.990966796875,0.099853515625,0.3662109076976776,2.380370855331421,0.7324218153953552,66.66667175292969,1398207.0,1.0
23091.8852382,220940.5625,228352.671875,684119.8125,336079.78125,-709053.625,332718.78125,236641.140625,-708287.375,-0.127685546875,0.9921875,0.101806640625,0.1831054538488388,2.288818120956421,0.7934569716453552,66.66667175292969,1398208.0,1.0
23091.8852515,221025.765625,228458.171875,684230.125,336207.0,-709056.5625,332821.96875,236732.796875,-708290.6875,-0.128662109375,0.992919921875,0.103759765625,0.1220703050494194,2.288818120956421,0.7934569716453552,66.66667175292969,1398209.0,1.0
23091.8871833,220688.4375,228178.421875,683933.75,335926.34375,-709069.6875,332592.46875,236438.640625,-708303.5,-0.1298828125,0.993408203125,0.101806640625,0.0915527269244194,2.136230230331421,0.6103515028953552,66.66667175292969,1398210.0,1.0
23091.8908927,220418.96875,227897.6875,683599.0625,335590.34375,-709070.5,332337.71875,236152.265625,-708303.9375,-0.128173828125,0.993896484375,0.100830078125,0.0,2.166747808456421,0.5798339247703552,66.66667175292969,1398211.0,1.0
23091.9101111,220771.953125,228188.796875,683893.3125,335871.53125,-709062.125,332577.0625,236460.28125,-708295.875,-0.1279296875,0.992431640625,0.101318359375,-0.1525878757238388,2.166747808456421,0.6408690810203552,66.66667175292969,1398212.0,1.0
23091.9101235,220948.4375,228370.828125,684103.125,336091.03125,-709052.625,332749.53125,236660.109375,-708286.0625,-0.127685546875,0.991455078125,0.102294921875,-0.2746581733226776,2.075195074081421,0.6713866591453552,66.66667175292969,1398213.0,1.0
23091.9165141,221030.25,228465.0625,684212.4375,336214.78125,-709053.875,332847.53125,236744.953125,-708287.5,-0.130615234375,0.98876953125,0.101806640625,-0.2136230319738388,1.9836424589157104,0.5798339247703552,66.66667175292969,1398214.0,1.0
23091.9165273,220700.15625,228194.875,683921.6875,335937.625,-709069.3125,332620.25,236450.53125,-708302.5625,-0.128662109375,0.9892578125,0.1044921875,-0.2746581733226776,1.9836424589157104,0.4882812201976776,66.66667175292969,1398215.0,1.0
23091.9184259,220425.40625,227913.6875,683589.75,335598.125,-709080.4375,332365.09375,236158.703125,-708313.25,-0.12890625,0.988525390625,0.104736328125,-0.1220703050494194,1.9531248807907104,0.4577636420726776,66.66667175292969,1398216.0,1.0
23091.9209119,220777.046875,228200.859375,683900.3125,335880.84375,-709057.0,332609.625,236467.609375,-708290.6875,-0.128173828125,0.987060546875,0.102294921875,-0.0610351525247097,1.8005369901657104,0.5187987685203552,66.66667175292969,1398217.0,1.0
23091.9234214,220954.875,228386.46875,684116.125,336107.3125,-709051.5625,332792.90625,236675.125,-708285.6875,-0.127197265625,0.988037109375,0.102783203125,-0.1525878757238388,1.8310545682907104,0.3967284858226776,66.66667175292969,1398218.0,1.0
23091.9309497,221034.265625,228480.96875,684222.0625,336237.40625,-709049.5,332896.875,236763.546875,-708283.5625,-0.129150390625,0.986328125,0.10302734375,-0.2136230319738388,1.8005369901657104,0.3356933295726776,66.66667175292969,1398219.0,1.0
23091.9340067,220702.390625,228204.796875,683919.0625,335955.3125,-709065.75,332661.9375,236462.0625,-708299.75,-0.12890625,0.98876953125,0.107177734375,-0.1525878757238388,1.7700194120407104,0.1525878757238388,66.66667175292969,1398220.0,1.0
23091.9340173,220426.828125,227914.40625,683578.5,335619.3125,-709073.4375,332406.75,236172.125,-708307.125,-0.128662109375,0.989501953125,0.104248046875,-0.1220703050494194,1.7089842557907104,0.0915527269244194,66.66667175292969,1398221.0,1.0
23091.9359122,220771.3125,228195.5,683882.125,335897.75,-709064.625,332645.03125,236473.6875,-708298.375,-0.1298828125,0.989990234375,0.10498046875,-0.1525878757238388,1.7395018339157104,0.0610351525247097,66.66667175292969,1398222.0,1.0
23091.9396643,220953.265625,228388.796875,684107.25,336125.46875,-709056.375,332826.78125,236678.4375,-708290.25,-0.129150390625,0.98828125,0.10595703125,-0.0915527269244194,1.6784666776657104,-0.0610351525247097,66.66667175292969,1398223.0,1.0
23091.9484567,221027.5625,228479.546875,684210.4375,336249.1875,-709051.5625,332926.5625,236760.5,-708285.4375,-0.126953125,0.9892578125,0.107177734375,-0.1220703050494194,1.6784666776657104,-0.0610351525247097,66.66667175292969,1398224.0,1.0
23091.9514828,220689.6875,228198.8125,683907.625,335967.84375,-709068.875,332698.21875,236459.65625,-708302.5625,-0.127685546875,0.988525390625,0.107421875,0.0,1.6784666776657104,-0.0915527269244194,66.66667175292969,1398225.0,1.0
23091.9514937,220419.234375,227917.53125,683574.875,335626.3125,-709074.25,332444.3125,236167.375,-708307.3125,-0.12890625,0.98974609375,0.10498046875,0.1220703050494194,1.7089842557907104,-0.2746581733226776,66.66667175292969,1398226.0,1.0
23091.9596725,220766.578125,228201.9375,683884.5625,335901.125,-709061.5,332683.90625,236471.71875,-708295.25,-0.128662109375,0.991943359375,0.104736328125,0.0915527269244194,1.8005369901657104,-0.4577636420726776,66.66667175292969,1398227.0,1.0
23091.9627479,220947.546875,228393.796875,684105.375,336123.3125,-709054.6875,332862.0,236674.5,-708289.1875,-0.12939453125,0.992431640625,0.10595703125,0.1525878757238388,1.7700194120407104,-0.4577636420726776,66.66667175292969,1398228.0,1.0
23091.9627578,221021.75,228478.734375,684209.8125,336246.0625,-709052.6875,332959.03125,236757.46875,-708286.5,-0.1298828125,0.992431640625,0.106689453125,0.1831054538488388,1.7089842557907104,-0.4272460639476776,66.66667175292969,1398229.0,1.0
23091.9709052,220690.578125,228199.515625,683910.3125,335963.09375,-709076.6875,332728.1875,236456.96875,-708309.8125,-0.129638671875,0.992431640625,0.10693359375,0.1525878757238388,1.7395018339157104,-0.3356933295726776,66.66667175292969,1398230.0,1.0
23091.9739877,220426.203125,227922.984375,683576.8125,335629.0625,-709083.3125,332479.34375,236169.703125,-708316.5625,-0.131591796875,0.99169921875,0.11181640625,0.1525878757238388,1.8005369901657104,-0.3356933295726776,66.66667175292969,1398231.0,1.0
23091.9739984,220770.515625,228196.5625,683875.875,335908.5625,-709066.1875,332719.84375,236473.78125,-708299.625,-0.13232421875,0.99365234375,0.1083984375,0.2441406100988388,1.7700194120407104,-0.1220703050494194,66.66667175292969,1398232.0,1.0
23091.9877639,220952.09375,228387.625,684089.3125,336129.46875,-709056.75,332893.75,236673.953125,-708290.5,-0.132080078125,0.99169921875,0.1083984375,0.1525878757238388,1.7700194120407104,-0.1831054538488388,66.66667175292969,1398233.0,1.0
23091.9877773,221034.53125,228487.859375,684197.5,336263.15625,-709054.9375,332999.53125,236765.953125,-708289.0,-0.131103515625,0.989990234375,0.105224609375,0.2136230319738388,1.8310545682907104,-0.1831054538488388,66.66667175292969,1398234.0,1.0
23091.9896647,220694.96875,228200.59375,683892.6875,335981.4375,-709066.125,332767.5,236468.328125,-708300.0,-0.13134765625,0.989990234375,0.107421875,0.2746581733226776,1.9531248807907104,-0.2746581733226776,66.66667175292969,1398235.0,1.0
23091.9984794,220423.078125,227913.859375,683554.1875,335631.65625,-709075.75,332503.3125,236169.703125,-708309.3125,-0.13037109375,0.990966796875,0.109130859375,0.3662109076976776,1.7700194120407104,-0.1525878757238388,66.66667175292969,1398236.0,1.0
23092.004033,220775.25,228205.59375,683853.8125,335916.875,-709057.0,332746.0625,236477.4375,-708291.3125,-0.129150390625,0.98828125,0.10693359375,0.3967284858226776,1.9226073026657104,-0.1220703050494194,66.66667175292969,1398237.0,1.0
23092.004045,220952.453125,228394.0625,684062.625,336139.21875,-709056.3125,332920.9375,236677.890625,-708290.25,-0.128173828125,0.98828125,0.10888671875,0.4272460639476776,1.9836424589157104,-0.03051757626235485,66.66667175292969,1398238.0,1.0
23092.0058874,221024.609375,228478.203125,684162.875,336258.6875,-709058.5,333014.46875,236758.890625,-708292.375,-0.130126953125,0.987548828125,0.10888671875,0.6103515028953552,1.9531248807907104,0.0610351525247097,66.66667175292969,1398239.0,1.0
23092.0107948,220697.46875,228207.296875,683867.125,335979.28125,-709070.125,332784.9375,236462.0625,-708303.6875,-0.130126953125,0.985595703125,0.110595703125,0.6713866591453552,1.9531248807907104,-0.0915527269244194,66.66667175292969,1398240.0,1.0
23092.0172282,220416.734375,227910.5625,683538.5625,335630.6875,-709077.9375,332523.4375,236163.71875,-708311.1875,-0.12841796875,0.98388671875,0.106689453125,0.7019042372703552,2.014159917831421,0.0,66.66667175292969,1398241.0,1.0
23092.0196615,220764.53125,228188.515625,683870.8125,335903.46875,-709062.25,332759.03125,236463.9375,-708296.4375,-0.126953125,0.9833984375,0.10791015625,0.8239745497703552,2.014159917831421,0.1220703050494194,66.66667175292969,1398242.0,1.0
23092.0221642,220948.4375,228381.375,684086.5,336126.09375,-709062.8125,332935.34375,236667.34375,-708296.875,-0.126708984375,0.98681640625,0.10791015625,0.9460448622703552,2.014159917831421,0.2136230319738388,66.66667175292969,1398243.0,1.0
23092.0246578,221030.6875,228479.90625,684192.5625,336253.9375,-709056.375,333035.8125,236756.21875,-708290.25,-0.127685546875,0.98828125,0.108642578125,1.0375975370407104,2.166747808456421,0.2746581733226776,66.66667175292969,1398244.0,1.0
23092.0339857,220697.640625,228201.484375,683889.3125,335970.25,-709074.4375,332798.96875,236453.578125,-708308.0625,-0.12841796875,0.987548828125,0.106201171875,1.0681151151657104,2.227782964706421,0.3356933295726776,66.66667175292969,1398245.0,1.0
23092.0339983,220419.40625,227910.375,683558.5625,335626.46875,-709080.875,332538.0,236158.53125,-708314.1875,-0.128662109375,0.989013671875,0.107421875,1.1596678495407104,2.319335699081421,0.2746581733226776,66.66667175292969,1398246.0,1.0
23092.0359164,220764.078125,228188.796875,683871.9375,335901.9375,-709064.4375,332776.625,236462.328125,-708297.6875,-0.126953125,0.989013671875,0.106201171875,1.1596678495407104,2.319335699081421,0.2441406100988388,66.66667175292969,1398247.0,1.0
23092.0446719,220949.515625,228381.015625,684091.625,336125.46875,-709059.9375,332955.28125,236665.46875,-708293.1875,-0.12548828125,0.99169921875,0.10302734375,1.1901854276657104,2.471923589706421,0.2746581733226776,66.66667175292969,1398248.0,1.0
23092.0515073,221032.75,228476.5,684196.5625,336251.25,-709057.375,333055.21875,236750.671875,-708291.3125,-0.12744140625,0.990234375,0.10498046875,1.2207030057907104,2.532958745956421,0.3662109076976776,66.66667175292969,1398249.0,1.0
23092.0515187,220686.828125,228181.734375,683886.25,335963.90625,-709073.75,332815.53125,236442.84375,-708308.125,-0.12646484375,0.989990234375,0.1064453125,1.2512205839157104,2.624511480331421,0.2136230319738388,66.66667175292969,1398250.0,1.0
23092.0539827,220405.375,227886.78125,683546.25,335613.15625,-709080.1875,332547.65625,236139.125,-708313.5625,-0.12548828125,0.991455078125,0.10595703125,1.2207030057907104,2.685546636581421,0.1831054538488388,66.66667175292969,1398251.0,1.0
23092.0539937,220761.3125,228181.453125,683889.125,335897.65625,-709068.5625,332792.1875,236450.71875,-708302.25,-0.12451171875,0.990478515625,0.107666015625,1.0986326932907104,2.777099370956421,0.03051757626235485,66.66667175292969,1398252.0,1.0
23092.0596501,220938.953125,228367.609375,684103.875,336118.21875,-709065.5,332963.84375,236651.15625,-708299.25,-0.1240234375,0.9912109375,0.1044921875,1.0070799589157104,2.716064214706421,-0.0610351525247097,66.66667175292969,1398253.0,1.0
23092.0684438,221010.65625,228454.59375,684201.75,336236.78125,-709066.375,333054.96875,236730.109375,-708300.1875,-0.126220703125,0.990234375,0.10595703125,0.9460448622703552,2.838134527206421,-0.0610351525247097,66.66667175292969,1398254.0,1.0
23092.0727588,220677.703125,228169.21875,683902.4375,335956.40625,-709080.6875,332824.03125,236432.390625,-708314.5,-0.126953125,0.9912109375,0.10546875,0.8850097060203552,2.868652105331421,-0.0610351525247097,66.66667175292969,1398255.0,1.0
23092.0727702,220410.46875,227889.8125,683569.0625,335619.6875,-709077.75,332571.53125,236141.1875,-708310.8125,-0.12744140625,0.990234375,0.104736328125,0.9155272841453552,2.899169683456421,-0.1220703050494194,66.66667175292969,1398256.0,1.0
23092.083435,220756.203125,228168.578125,683863.1875,335894.96875,-709062.4375,332806.125,236439.71875,-708296.0,-0.127197265625,0.989501953125,0.10400390625,0.7324218153953552,2.868652105331421,-0.1220703050494194,66.66667175292969,1398257.0,1.0
23092.0864834,220935.65625,228360.09375,684080.1875,336115.34375,-709062.125,332979.21875,236641.859375,-708295.875,-0.127197265625,0.990478515625,0.10009765625,0.7629393935203552,2.868652105331421,-0.0915527269244194,66.66667175292969,1398258.0,1.0
23092.0864951,221014.15625,228450.125,684186.125,336241.96875,-709054.5,333078.65625,236730.5625,-708288.4375,-0.12744140625,0.98876953125,0.099853515625,0.7934569716453552,2.807616949081421,-0.1831054538488388,66.66667175292969,1398259.0,1.0
23092.0883887,220689.0625,228177.078125,683893.3125,335969.0,-709070.125,332854.9375,236440.25,-708303.6875,-0.1279296875,0.988037109375,0.104248046875,0.7934569716453552,2.807616949081421,-0.1831054538488388,66.66667175292969,1398260.0,1.0
23092.0971739,220405.828125,227880.421875,683554.1875,335608.15625,-709081.3125,332577.53125,236129.109375,-708314.5,-0.12744140625,0.989501953125,0.10498046875,0.7019042372703552,2.716064214706421,-0.3356933295726776,66.66667175292969,1398261.0,1.0
23092.1001992,220755.5,228162.140625,683871.3125,335890.3125,-709056.5625,332818.03125,236437.03125,-708290.5,-0.126953125,0.988037109375,0.103515625,0.6713866591453552,2.777099370956421,-0.3356933295726776,66.66667175292969,1398262.0,1.0
23092.1002089,220941.28125,228356.078125,684088.125,336118.65625,-709051.375,333000.0625,236647.140625,-708285.125,-0.12890625,0.990478515625,0.1025390625,0.6408690810203552,2.777099370956421,-0.2136230319738388,66.66667175292969,1398263.0,1.0
23092.1021625,221025.328125,228456.65625,684194.875,336247.78125,-709048.0,333103.3125,236739.046875,-708281.6875,-0.1318359375,0.990478515625,0.10302734375,0.4882812201976776,2.685546636581421,-0.1220703050494194,66.66667175292969,1398264.0,1.0
23092.1159191,220699.078125,228186.5625,683896.5625,335969.4375,-709060.75,332876.40625,236445.609375,-708293.8125,-0.130615234375,0.98974609375,0.10693359375,0.4882812201976776,2.624511480331421,-0.0915527269244194,66.66667175292969,1398265.0,1.0
23092.1188515,220412.0,227882.65625,683558.5,335613.59375,-709074.0625,332606.40625,236140.109375,-708307.25,-0.130126953125,0.988525390625,0.10546875,0.5187987685203552,2.593993902206421,-0.0915527269244194,66.66667175292969,1398266.0,1.0
23092.1188622,220757.546875,228159.28125,683863.4375,335885.3125,-709066.125,332841.09375,236439.0,-708299.4375,-0.13037109375,0.989990234375,0.104736328125,0.4882812201976776,2.563476324081421,-0.0610351525247097,66.66667175292969,1398267.0,1.0
23092.1265426,220948.53125,228361.078125,684089.125,336108.125,-709052.5625,333019.625,236643.203125,-708285.875,-0.131591796875,0.989501953125,0.103759765625,0.4272460639476776,2.410888433456421,-0.0915527269244194,66.66667175292969,1398268.0,1.0
23092.1265552,221026.125,228458.265625,684198.0,336231.59375,-709059.125,333118.53125,236727.96875,-708292.8125,-0.131591796875,0.990234375,0.1064453125,0.4272460639476776,2.380370855331421,-0.03051757626235485,66.66667175292969,1398269.0,1.0
23092.1284128,220691.5625,228179.21875,683897.25,335949.59375,-709072.75,332887.3125,236430.421875,-708306.625,-0.13037109375,0.990234375,0.108642578125,0.4272460639476776,2.380370855331421,-0.0610351525247097,66.66667175292969,1398270.0,1.0
23092.1371518,220403.859375,227873.625,683551.8125,335592.78125,-709088.9375,332614.71875,236124.90625,-708322.375,-0.131591796875,0.98974609375,0.109375,0.3051757514476776,2.349853277206421,-0.0610351525247097,66.66667175292969,1398271.0,1.0
23092.1439819,220759.078125,228166.0,683883.8125,335874.3125,-709069.0625,332857.53125,236434.078125,-708302.875,-0.13134765625,0.990966796875,0.1064453125,0.3662109076976776,2.258300542831421,-0.1831054538488388,66.66667175292969,1398272.0,1.0
23092.1439946,220938.875,228360.359375,684111.8125,336099.53125,-709054.75,333037.53125,236641.140625,-708288.9375,-0.129150390625,0.992431640625,0.104736328125,0.2746581733226776,2.258300542831421,-0.1831054538488388,66.66667175292969,1398273.0,1.0
23092.1502414,221019.328125,228453.34375,684215.1875,336222.90625,-709054.6875,333136.84375,236726.890625,-708288.625,-0.1298828125,0.99169921875,0.106689453125,0.1831054538488388,2.197265386581421,-0.0915527269244194,66.66667175292969,1398274.0,1.0
23092.1502549,220697.46875,228188.875,683926.375,335951.75,-709070.9375,332913.96875,236436.859375,-708304.8125,-0.129638671875,0.991455078125,0.1083984375,0.0915527269244194,2.227782964706421,-0.1831054538488388,66.66667175292969,1398275.0,1.0
23092.1615096,220416.46875,227898.390625,683580.125,335607.34375,-709078.1875,332654.0625,236141.625,-708312.0625,-0.128662109375,0.99169921875,0.104248046875,0.0915527269244194,2.227782964706421,-0.1831054538488388,66.66667175292969,1398276.0,1.0
23092.1615227,220757.375,228179.140625,683885.4375,335879.15625,-709063.875,332887.0625,236443.109375,-708298.375,-0.12890625,0.990234375,0.107177734375,0.0,2.136230230331421,-0.1831054538488388,66.66667175292969,1398277.0,1.0
23092.1677621,220934.578125,228368.671875,684098.9375,336101.6875,-709063.4375,333063.28125,236647.234375,-708297.6875,-0.126708984375,0.989990234375,0.109619140625,0.03051757626235485,2.105712652206421,-0.1220703050494194,66.66667175292969,1398278.0,1.0
23092.1677746,221016.203125,228462.90625,684204.375,336230.4375,-709059.9375,333165.1875,236736.8125,-708293.8125,-0.1279296875,0.990234375,0.106689453125,0.0610351525247097,2.166747808456421,-0.0610351525247097,66.66667175292969,1398279.0,1.0
23092.1964848,220687.09375,228183.421875,683902.875,335946.75,-709075.6875,332930.21875,236436.40625,-708309.125,-0.126708984375,0.98828125,0.10595703125,-0.0610351525247097,2.166747808456421,-0.1831054538488388,66.66667175292969,1398280.0,1.0
23092.1964966,220409.578125,227895.0,683573.3125,335600.1875,-709078.375,332669.25,236141.984375,-708311.6875,-0.128173828125,0.986572265625,0.1064453125,-0.0915527269244194,2.258300542831421,-0.0610351525247097,66.66667175292969,1398281.0,1.0
23092.199644,220751.375,228176.453125,683887.125,335879.21875,-709050.1875,332910.75,236449.28125,-708284.0,-0.12841796875,0.98779296875,0.1064453125,-0.03051757626235485,2.319335699081421,-0.0915527269244194,66.66667175292969,1398282.0,1.0
23092.1996552,220931.0,228369.21875,684103.125,336101.15625,-709048.875,333088.03125,236653.671875,-708283.0,-0.12890625,0.987060546875,0.106689453125,0.0610351525247097,2.410888433456421,-0.1220703050494194,66.66667175292969,1398283.0,1.0
23092.1996587,221006.8125,228459.0625,684207.25,336223.375,-709058.0625,333183.0625,236738.6875,-708292.125,-0.1318359375,0.986328125,0.107177734375,0.1220703050494194,2.410888433456421,-0.0610351525247097,66.66667175292969,1398284.0,1.0
23092.2033316,220684.234375,228190.484375,683914.4375,335951.03125,-709069.25,332959.125,236448.03125,-708303.0625,-0.13037109375,0.985107421875,0.108642578125,0.0915527269244194,2.319335699081421,-0.0610351525247097,66.66667175292969,1398285.0,1.0
23092.2033411,220407.171875,227900.1875,683579.0625,335603.0625,-709064.25,332699.65625,236152.265625,-708297.6875,-0.13037109375,0.98583984375,0.109130859375,0.2136230319738388,2.349853277206421,0.0,66.66667175292969,1398286.0,1.0
23092.2033445,220752.90625,228181.015625,683894.8125,335874.6875,-709054.3125,332935.6875,236454.90625,-708288.1875,-0.13134765625,0.986083984375,0.11083984375,0.2746581733226776,2.319335699081421,-0.0610351525247097,66.66667175292969,1398287.0,1.0
23092.2059056,220935.65625,228371.890625,684109.9375,336096.03125,-709052.0625,333112.4375,236658.046875,-708285.875,-0.1328125,0.985595703125,0.110107421875,0.2136230319738388,2.288818120956421,-0.0610351525247097,66.66667175292969,1398288.0,1.0
23092.2084116,221019.515625,228467.828125,684215.625,336224.53125,-709053.8125,333214.625,236748.4375,-708287.8125,-0.131103515625,0.98583984375,0.10986328125,0.3356933295726776,2.319335699081421,-0.0610351525247097,66.66667175292969,1398289.0,1.0
23092.2133899,220699.703125,228201.390625,683928.75,335957.8125,-709068.5625,332996.3125,236464.296875,-708302.4375,-0.130615234375,0.984375,0.109130859375,0.3662109076976776,2.288818120956421,0.0915527269244194,66.66667175292969,1398290.0,1.0
23092.2159226,220409.3125,227898.046875,683596.0625,335601.0,-709078.625,332727.8125,236158.171875,-708312.125,-0.1298828125,0.9833984375,0.10888671875,0.3662109076976776,2.319335699081421,0.1220703050494194,66.66667175292969,1398291.0,1.0
23092.2189557,220753.078125,228173.40625,683910.3125,335869.84375,-709062.8125,332960.625,236455.265625,-708296.5,-0.130615234375,0.98486328125,0.108154296875,0.4272460639476776,2.227782964706421,0.03051757626235485,66.66667175292969,1398292.0,1.0
23092.218966,220938.875,228369.578125,684131.75,336094.15625,-709055.5625,333139.625,236662.0625,-708289.4375,-0.129638671875,0.986328125,0.107421875,0.4882812201976776,2.258300542831421,0.1220703050494194,66.66667175292969,1398293.0,1.0
23092.2271907,221025.0625,228471.40625,684240.9375,336224.15625,-709054.125,333244.3125,236754.609375,-708288.25,-0.129150390625,0.987060546875,0.107177734375,0.5187987685203552,2.197265386581421,0.2441406100988388,66.66667175292969,1398294.0,1.0
23092.2296996,220700.15625,228198.265625,683947.6875,335949.0625,-709065.875,333019.28125,236463.671875,-708299.625,-0.130126953125,0.98828125,0.1103515625,0.5798339247703552,2.136230230331421,0.2441406100988388,66.66667175292969,1398295.0,1.0
23092.2358948,220406.71875,227890.625,683599.4375,335585.875,-709076.875,332741.0625,236149.859375,-708310.625,-0.128662109375,0.9921875,0.10986328125,0.5187987685203552,2.136230230331421,0.1831054538488388,66.66667175292969,1398296.0,1.0
23092.2427659,220754.421875,228173.40625,683890.25,335858.21875,-709069.0,332974.5,236446.859375,-708302.5625,-0.128173828125,0.993896484375,0.1064453125,0.5187987685203552,2.166747808456421,0.2136230319738388,66.66667175292969,1398297.0,1.0
23092.2427793,220945.75,228375.46875,684115.125,336085.59375,-709061.5625,333157.0625,236658.671875,-708295.1875,-0.1318359375,0.993896484375,0.107421875,0.5187987685203552,2.258300542831421,0.1525878757238388,66.66667175292969,1398298.0,1.0
23092.2452185,221026.390625,228468.71875,684225.1875,336214.5,-709054.9375,333260.40625,236752.453125,-708288.9375,-0.12890625,0.994873046875,0.10888671875,0.4272460639476776,2.197265386581421,0.1220703050494194,66.66667175292969,1398299.0,1.0
23092.2452295,220701.3125,228199.96875,683934.0625,335943.6875,-709069.4375,333037.96875,236462.953125,-708303.1875,-0.12890625,0.99560546875,0.10888671875,0.3967284858226776,2.136230230331421,0.0610351525247097,66.66667175292969,1398300.0,1.0
23092.2584549,220416.90625,227905.90625,683589.5,335592.3125,-709075.4375,332774.21875,236161.921875,-708309.0,-0.1298828125,0.993408203125,0.109619140625,0.2746581733226776,2.166747808456421,0.1525878757238388,66.66667175292969,1398301.0,1.0
23092.2634147,220754.25,228180.75,683886.25,335862.4375,-709057.5625,333006.0625,236460.28125,-708291.125,-0.12646484375,0.993408203125,0.1123046875,0.2441406100988388,2.197265386581421,0.0915527269244194,66.66667175292969,1398302.0,1.0
23092.266504,220935.921875,228369.390625,684101.8125,336086.75,-709044.5,333183.25,236664.125,-708278.4375,-0.1259765625,0.992919921875,0.11279296875,0.1831054538488388,2.166747808456421,0.1525878757238388,66.66667175292969,1398303.0,1.0
23092.2665153,221025.953125,228477.125,684214.9375,336216.125,-709045.625,333285.71875,236755.046875,-708279.9375,-0.12744140625,0.99072265625,0.112548828125,0.1831054538488388,2.136230230331421,0.2136230319738388,66.66667175292969,1398304.0,1.0
23092.2683883,220700.328125,228207.5625,683923.875,335945.46875,-709063.0,333063.28125,236467.78125,-708297.0625,-0.12548828125,0.98876953125,0.112060546875,0.1831054538488388,2.075195074081421,0.1831054538488388,66.66667175292969,1398305.0,1.0
23092.2721609,220410.65625,227905.734375,683585.9375,335592.78125,-709072.5625,332798.53125,236165.40625,-708306.5,-0.1259765625,0.9873046875,0.11083984375,0.2136230319738388,2.136230230331421,0.2136230319738388,66.66667175292969,1398306.0,1.0
23092.2809348,220749.859375,228176.984375,683889.1875,335863.59375,-709052.1875,333032.6875,236463.40625,-708286.5,-0.12548828125,0.987548828125,0.111083984375,0.1831054538488388,2.136230230331421,0.1831054538488388,66.66667175292969,1398307.0,1.0
23092.2852362,220932.34375,228369.9375,684107.625,336089.15625,-709050.3125,333211.96875,236669.484375,-708284.625,-0.125732421875,0.987060546875,0.112060546875,0.1525878757238388,2.197265386581421,0.2136230319738388,66.66667175292969,1398308.0,1.0
23092.2852485,221013.703125,228466.046875,684213.8125,336215.9375,-709049.5625,333310.21875,236755.140625,-708283.1875,-0.125,0.98583984375,0.112060546875,0.1831054538488388,2.319335699081421,0.3356933295726776,66.66667175292969,1398309.0,1.0
23092.2934507,220693.984375,228203.90625,683925.3125,335950.59375,-709058.1875,333090.53125,236468.6875,-708291.875,-0.126220703125,0.9853515625,0.11083984375,0.2746581733226776,2.319335699081421,0.4272460639476776,66.66667175292969,1398310.0,1.0
23092.2964765,220406.546875,227904.296875,683585.375,335596.25,-709063.875,332822.59375,236163.71875,-708297.25,-0.127197265625,0.985107421875,0.110107421875,0.3356933295726776,2.349853277206421,0.3967284858226776,66.66667175292969,1398311.0,1.0
23092.2964866,220755.3125,228182.078125,683895.125,335874.6875,-709054.875,333061.46875,236466.890625,-708288.5625,-0.125,0.982421875,0.10986328125,0.4577636420726776,2.380370855331421,0.3967284858226776,66.66667175292969,1398312.0,1.0
23092.3021625,220946.203125,228380.125,684116.6875,336108.21875,-709048.6875,333245.03125,236678.78125,-708282.1875,-0.125244140625,0.982666015625,0.107177734375,0.4577636420726776,2.471923589706421,0.4272460639476776,66.66667175292969,1398313.0,1.0
23092.3115125,221032.03125,228479.0,684225.0,336236.6875,-709042.625,333343.125,236765.0625,-708276.375,-0.12548828125,0.983642578125,0.1103515625,0.5798339247703552,2.471923589706421,0.3662109076976776,66.66667175292969,1398314.0,1.0
23092.3115258,220698.625,228195.234375,683923.0625,335954.78125,-709060.125,333110.03125,236462.875,-708293.75,-0.127197265625,0.984375,0.107666015625,0.6713866591453552,2.380370855331421,0.3662109076976776,66.66667175292969,1398315.0,1.0
23092.3139945,220410.109375,227889.359375,683586.125,335591.625,-709072.5,332835.90625,236150.484375,-708305.25,-0.129150390625,0.98583984375,0.106201171875,0.7934569716453552,2.288818120956421,0.1831054538488388,66.66667175292969,1398316.0,1.0
23092.3140037,220757.546875,228170.546875,683901.1875,335863.40625,-709058.0625,333071.0625,236452.046875,-708291.3125,-0.130615234375,0.987548828125,0.1044921875,0.8850097060203552,2.197265386581421,0.2136230319738388,66.66667175292969,1398317.0,1.0
23092.3222261,220948.609375,228376.28125,684138.5,336096.3125,-709055.375,333257.8125,236667.34375,-708289.375,-0.131103515625,0.989013671875,0.106689453125,0.8239745497703552,2.136230230331421,0.1220703050494194,66.66667175292969,1398318.0,1.0
23092.3257918,221026.578125,228473.1875,684246.0,336224.53125,-709058.5,333361.625,236756.65625,-708292.5625,-0.13232421875,0.990234375,0.1083984375,0.8850097060203552,2.105712652206421,0.0610351525247097,66.66667175292969,1398319.0,1.0
23092.3321841,220694.34375,228192.09375,683948.5,335947.90625,-709077.0,333134.53125,236461.890625,-708310.875,-0.133544921875,0.990966796875,0.1103515625,0.8850097060203552,1.8310545682907104,0.0,66.66667175292969,1398320.0,1.0
23092.3346585,220412.171875,227903.578125,683595.4375,335596.96875,-709076.125,332867.46875,236156.203125,-708310.25,-0.134521484375,0.9931640625,0.109619140625,0.9155272841453552,1.7089842557907104,-0.0610351525247097,66.66667175292969,1398321.0,1.0
23092.3390136,220750.578125,228174.484375,683877.5,335862.34375,-709058.25,333095.46875,236449.546875,-708292.1875,-0.135498046875,0.992919921875,0.112548828125,0.8850097060203552,1.5563963651657104,-0.3051757514476776,66.66667175292969,1398322.0,1.0
23092.3390403,220937.96875,228363.9375,684097.8125,336086.46875,-709062.1875,333274.90625,236658.21875,-708295.875,-0.13427734375,0.994384765625,0.1083984375,0.7324218153953552,1.4953612089157104,-0.3356933295726776,66.66667175292969,1398323.0,1.0
23092.3496669,221021.296875,228463.625,684206.0625,336216.03125,-709066.8125,333378.875,236748.4375,-708300.5,-0.13232421875,0.995361328125,0.108642578125,0.6713866591453552,1.3427733182907104,-0.3662109076976776,66.66667175292969,1398324.0,1.0
23092.3527378,220693.890625,228192.640625,683914.0,335946.375,-709083.625,333158.5,236461.171875,-708317.0625,-0.13037109375,0.995849609375,0.10595703125,0.4882812201976776,1.3122557401657104,-0.3356933295726776,66.66667175292969,1398325.0,1.0
23092.3527491,220407.34375,227897.953125,683572.5,335591.6875,-709083.8125,332892.5,236158.0,-708316.8125,-0.130126953125,0.996337890625,0.10986328125,0.4272460639476776,1.0681151151657104,-0.4272460639476776,66.66667175292969,1398326.0,1.0
23092.3609253,220749.5,228177.4375,683884.0,335861.25,-709063.8125,333125.59375,236456.4375,-708297.6875,-0.12841796875,0.999267578125,0.1123046875,0.3051757514476776,1.0070799589157104,-0.4577636420726776,66.66667175292969,1398327.0,1.0
23092.3652717,220938.875,228380.21875,684103.25,336087.71875,-709059.6875,333307.71875,236665.28125,-708293.375,-0.126953125,0.996826171875,0.110107421875,0.3356933295726776,0.9765624403953552,-0.3356933295726776,66.66667175292969,1398328.0,1.0
23092.3652991,221018.0,228470.6875,684205.8125,336209.9375,-709062.375,333405.25,236749.328125,-708296.4375,-0.12744140625,0.995849609375,0.11181640625,0.3051757514476776,0.9460448622703552,-0.4882812201976776,66.66667175292969,1398329.0,1.0
23092.3709102,220695.6875,228198.53125,683917.0,335939.59375,-709079.25,333184.40625,236459.828125,-708313.375,-0.12744140625,0.99658203125,0.108154296875,0.2136230319738388,0.9765624403953552,-0.5493163466453552,66.66667175292969,1398330.0,1.0
23092.3802593,220404.21875,227900.546875,683574.375,335577.75,-709081.0625,332910.03125,236146.453125,-708314.5,-0.128662109375,0.99560546875,0.10986328125,0.1525878757238388,1.0375975370407104,-0.4272460639476776,66.66667175292969,1398331.0,1.0
23092.3802721,220740.5625,228172.34375,683892.25,335842.125,-709073.4375,333140.53125,236437.484375,-708307.0625,-0.128662109375,0.994140625,0.107421875,0.1525878757238388,1.0986326932907104,-0.3662109076976776,66.66667175292969,1398332.0,1.0
23092.382137,220926.4375,228365.8125,684120.125,336070.46875,-709075.5,333324.53125,236644.09375,-708309.5625,-0.12890625,0.993896484375,0.109375,0.1525878757238388,1.0986326932907104,-0.3051757514476776,66.66667175292969,1398333.0,1.0
23092.3858618,221008.96875,228466.9375,684230.5,336200.75,-709076.6875,333427.5,236734.671875,-708310.625,-0.1298828125,0.990234375,0.110595703125,0.1525878757238388,1.1901854276657104,-0.3967284858226776,66.66667175292969,1398334.0,1.0
23092.3927369,220690.3125,228207.125,683946.5,335933.40625,-709088.1875,333208.90625,236452.234375,-708321.75,-0.129150390625,0.98876953125,0.109619140625,0.2441406100988388,1.2817381620407104,-0.4272460639476776,66.66667175292969,1398335.0,1.0
23092.3927529,220402.15625,227908.765625,683613.0,335574.53125,-709095.5625,332938.0,236147.171875,-708329.125,-0.12939453125,0.98876953125,0.110595703125,0.2746581733226776,1.2817381620407104,-0.3967284858226776,66.66667175292969,1398336.0,1.0
23092.4009176,220735.828125,228174.578125,683909.875,335842.40625,-709081.0625,333164.9375,236444.0,-708314.125,-0.13037109375,0.988525390625,0.10888671875,0.3662109076976776,1.3732908964157104,-0.2441406100988388,66.66667175292969,1398337.0,1.0
23092.4052409,220923.3125,228375.5625,684122.75,336070.03125,-709076.125,333343.03125,236651.515625,-708309.625,-0.129638671875,0.989013671875,0.109375,0.4577636420726776,1.3732908964157104,-0.2746581733226776,66.66667175292969,1398338.0,1.0
23092.4052523,221008.609375,228475.34375,684229.5625,336200.75,-709074.25,333446.8125,236743.078125,-708308.3125,-0.12841796875,0.990478515625,0.11181640625,0.5187987685203552,1.4648436307907104,-0.1525878757238388,66.66667175292969,1398339.0,1.0
23092.413404,220688.96875,228209.4375,683946.5,335936.28125,-709078.8125,333230.8125,236463.234375,-708312.3125,-0.125244140625,0.98876953125,0.110107421875,0.5493163466453552,1.6174315214157104,-0.0915527269244194,66.66667175292969,1398340.0,1.0
23092.4202366,220403.328125,227913.421875,683596.1875,335577.40625,-709084.625,332956.34375,236153.796875,-708317.625,-0.124267578125,0.9892578125,0.108154296875,0.5187987685203552,1.8310545682907104,0.1831054538488388,66.66667175292969,1398341.0,1.0
23092.4202499,220735.109375,228175.828125,683881.3125,335838.8125,-709076.0625,333181.03125,236440.34375,-708309.625,-0.122314453125,0.989990234375,0.107421875,0.5798339247703552,1.9531248807907104,0.3356933295726776,66.66667175292969,1398342.0,1.0
23092.4264876,220916.25,228361.53125,684092.0,336057.875,-709072.375,333354.90625,236640.703125,-708306.3125,-0.120849609375,0.99072265625,0.110107421875,0.6713866591453552,2.258300542831421,0.5798339247703552,66.66667175292969,1398343.0,1.0
23092.4264985,220999.75,228458.890625,684200.9375,336179.46875,-709068.1875,333450.59375,236726.171875,-708301.875,-0.11865234375,0.989990234375,0.112060546875,0.6713866591453552,2.441406011581421,0.6713866591453552,66.66667175292969,1398344.0,1.0
23092.4390365,220677.53125,228190.125,683913.4375,335912.59375,-709085.625,333228.6875,236439.71875,-708319.0625,-0.119873046875,0.99072265625,0.114013671875,0.7019042372703552,2.563476324081421,0.7934569716453552,66.66667175292969,1398345.0,1.0
23092.439049,220396.171875,227897.140625,683572.0,335567.03125,-709087.3125,332963.84375,236140.640625,-708320.5625,-0.11767578125,0.98876953125,0.11328125,0.7629393935203552,2.838134527206421,1.0681151151657104,66.66667175292969,1398346.0,1.0
23092.4414819,220735.015625,228168.859375,683860.875,335837.75,-709075.25,333191.40625,236437.75,-708308.875,-0.1181640625,0.990966796875,0.110595703125,0.7629393935203552,2.990722417831421,1.0986326932907104,66.66667175292969,1398347.0,1.0
23092.4414936,220919.203125,228360.8125,684074.625,336062.875,-709071.0625,333364.3125,236643.46875,-708304.75,-0.12060546875,0.989013671875,0.10986328125,0.7629393935203552,3.112792730331421,1.1291502714157104,66.66667175292969,1398348.0,1.0
23092.4527603,221003.59375,228458.703125,684179.4375,336189.21875,-709067.4375,333460.59375,236729.921875,-708301.0625,-0.1220703125,0.988525390625,0.111083984375,0.7324218153953552,3.295898199081421,0.9765624403953552,66.66667175292969,1398349.0,1.0
23092.4527725,220683.96875,228191.734375,683887.9375,335919.1875,-709072.5,333236.0,236438.828125,-708306.0625,-0.123291015625,0.989990234375,0.1123046875,0.6408690810203552,3.387450933456421,0.7934569716453552,66.66667175292969,1398350.0,1.0
23092.4615068,220389.109375,227880.875,683537.3125,335553.4375,-709079.5625,332954.1875,236123.03125,-708312.75,-0.12451171875,0.9892578125,0.11083984375,0.6103515028953552,3.387450933456421,0.6408690810203552,66.66667175292969,1398351.0,1.0
